NAME  PAM_15GHZ_ANF
UNITS  0.0254
B_LAYERS
  1   M1           METAL       0.508000     -            0xDC983DFF 0            0            0
  2   D1           DIELECTRIC  0.000000     -            0x3FC604FF 0            0            0
  3   M2           METAL       0.000000     -            0xDC983DFF 0            0            0
E_LAYERS
B_NETS
  1  Net1
  2  Net2
  3  Net3
  4  Net4
  5  Net5
  6  Net6
  7  Net7
  8  Net8
  9  Net9
  10  Net10
  11  Net11
  12  Net12
  13  Net13
  14  Net14
  15  Net15
  16  Net16
  17  Net17
  18  Net18
  19  Net19
  20  Net20
  21  Net21
  22  Net22
  23  Net23
  24  Net24
  25  Net25
  26  Net26
  27  Net27
  28  Net28
  29  Net29
  30  Net30
  31  Net31
  32  Net32
  33  Net33
  34  Net34
  35  Net35
  36  Net36
  37  Net37
  38  Net38
  39  Net39
  40  Net40
  41  Net41
  42  Net42
  43  Net43
  44  Net44
  45  Net45
  46  Net46
  47  Net47
  48  Net48
  49  Net49
  50  Net50
  51  Net51
  52  Net52
  53  Net53
  54  Net54
  55  Net55
  56  Net56
  57  Net57
  58  Net58
  59  Net59
  60  Net60
  61  Net61
  62  Net62
  63  Net63
  64  Net64
  65  Net65
  66  Net66
  67  Net67
  68  Net68
  69  Net69
  70  Net70
  71  Net71
  72  Net72
  73  Net73
  74  Net74
  75  TOP
E_NETS
B_PADSTACKS
E_PADSTACKS
B_GEOMETRY
P 1    1   10   109         
  5.303        1.0005       5.303        1.003        0
  5.3055       1.003
  5.3055       2.299329     5.292274     2.303        0
  5.3055       2.306671
  5.3055       2.997        5.303        2.997        0
  5.303        2.9995
  1.004        2.9995       1.004        2.997        0
  1.0015       2.997
  1.0015       1.003        1.004        1.003        0
  1.004        1.0005
  B_CUTOUTS
    P 13
      1.0065       1.977
      1.0065       1.99
      1.1625       1.99
      1.1625       2.01
      1.0065       2.01
      1.0065       2.023
      1.045        2.023
      1.046        2.022
      1.174        2.022
      1.174        1.978
      1.046        1.978
      1.045        1.977
      1.0065       1.977
    P 13
      1.176        1.978
      1.176        2.022
      1.224        2.022
      1.224        2.017
      1.247        2.017
      1.247        2.015
      1.283        2.015
      1.283        1.985
      1.247        1.985
      1.247        1.983
      1.224        1.983
      1.224        1.978
      1.176        1.978
    P 37
      1.355        2.133
      1.343        2.133
      1.343        2.13099      1.345961     2.127009     0
      1.341        2.127
      1.341        2.0825
      1.311        2.0825
      1.311        2.118
      1.301        2.118
      1.301        2.0825
      1.283        2.0825
      1.283        2.065
      1.25         2.065
      1.25         2.075
      1.273        2.075
      1.273        2.085
      1.25         2.085
      1.25         2.103
      1.253        2.103
      1.253        2.1125
      1.255        2.115
      1.26         2.119
      1.267        2.12
      1.269        2.12
      1.269        2.168
      1.258        2.168
      1.258        2.177
      1.257        2.177
      1.257        2.161
      1.213        2.161
      1.213        2.244
      1.257        2.244
      1.257        2.211
      1.258        2.211
      1.258        2.222
      1.312        2.222
      1.312        2.217
      1.355        2.217
    P 13
      1.301        1.903
      1.291        1.903
      1.291        1.927
      1.281        1.927
      1.281        1.903
      1.266        1.903
      1.261785     1.903602     1.247949     1.905997     0
      1.249        1.92
      1.25         1.925
      1.25         1.935
      1.279        1.935        1.278756     1.940877     0
      1.283572     1.9375
      1.301        1.9375
    P 9
      1.283        1.975
      1.283        1.950994     1.318157     1.909307     0
      1.276928     1.945
      1.25         1.945
      1.25         1.955
      1.273        1.955
      1.273        1.965
      1.25         1.965
      1.25         1.975
    P 9
      1.25         2.025
      1.25         2.035
      1.273        2.035
      1.273        2.045
      1.25         2.045
      1.25         2.055
      1.283        2.055
      1.283        2.025
      1.25         2.025
    P 405
      2.405        2.76
      2.406        2.76
      2.406        2.761
      2.41         2.761
      2.414        2.762
      2.415        2.762
      3.13         2.761
      3.571        2.762
      4.288        2.762
      4.297        2.761
      4.301        2.758
      4.867        2.758
      4.879        2.755
      4.89         2.748
      4.897        2.737
      4.899187     2.728251     4.912695     2.725993     0
      4.899413     2.722653
      4.897        2.713
      4.89         2.702
      4.879        2.695
      4.867        2.692
      4.31         2.692
      4.31         2.477
      4.313        2.477
      4.313        2.393
      4.265        2.393
      4.265        2.394
      4.261        2.39
      4.261        2.364
      4.208        2.364
      4.208        2.363
      4.261        2.363
      4.261        2.323
      4.265        2.327
      4.265        2.387
      4.313        2.387
      4.313        2.304
      4.292        2.304
      4.292        2.279
      4.29         2.279
      4.29         2.2435
      4.26         2.2435
      4.26         2.279
      4.258        2.279
      4.258        2.309
      4.252        2.309
      4.252        2.279
      4.25         2.279
      4.25         2.2435
      4.232        2.2435
      4.232        2.226
      4.202        2.226
      4.202        2.236
      4.222        2.236
      4.222        2.246
      4.202        2.246
      4.202        2.253
      4.203        2.26
      4.207        2.265
      4.212        2.269
      4.218        2.27
      4.218        2.309
      4.207        2.309
      4.207        2.314
      4.16         2.314
      4.16         2.398
      4.207        2.398
      4.207        2.418
      4.239        2.418
      4.249        2.427
      4.254        2.431
      4.261        2.432
      4.265        2.432
      4.265        2.477
      4.266        2.477
      4.266        2.718
      3.593        2.718
      3.593        2.427
      3.595        2.427
      3.595        2.343
      3.546        2.343
      3.546        2.348
      3.535        2.348
      3.535        2.328
      3.481        2.328
      3.481        2.382
      3.546        2.382
      3.546        2.427
      3.549        2.427
      3.549        2.718
      3.152        2.717
      3.152        2.452
      3.155        2.452
      3.155        2.368
      3.112        2.368
      3.11         2.366
      3.11         2.362
      3.158        2.362
      3.158        2.283
      3.144        2.283
      3.144        2.224
      3.177        2.224
      3.177        2.175
      3.133        2.175
      3.133        2.182
      3.110072     2.182
      3.109536     2.182536     3.105963     2.178909     0
      3.106        2.184
      3.071        2.184
      3.071        2.174
      3.103928     2.174
      3.109        2.168928
      3.109        2.167646     3.114975     2.155021     0
      3.102876     2.162
      3.097        2.162
      3.097        2.164
      3.053        2.164
      3.053        2.193928
      3.061536     2.202464     3.057995     2.206001     0
      3.063        2.206
      3.063        2.236551     3.068007     2.247964     0
      3.077        2.239335
      3.077        2.218
      3.111        2.218
      3.111        2.27
      3.1105       2.27
      3.1105       2.282
      3.0535       2.282
      3.0535       2.243
      3.053        2.243
      3.053        2.208072
      3.038928     2.194
      2.963        2.194
      2.963        2.184
      2.912        2.184        2.912489     2.177432     0
      2.907        2.181072
      2.907        2.182
      2.853        2.182
      2.846        2.183
      2.84         2.187
      2.832        2.195
      2.813467     2.195
      2.813        2.195132
      2.813        2.199
      2.792        2.199
      2.792        2.193
      2.718        2.193
      2.718        2.215
      2.71         2.215
      2.71         2.213
      2.682197     2.213        2.675        2.201051     0
      2.667803     2.213
      2.661        2.213
      2.661        2.257
      2.71         2.257
      2.71         2.255
      2.718        2.255
      2.718        2.277
      2.792        2.277
      2.792        2.239
      2.813        2.239
      2.813        2.244
      2.857        2.244
      2.857        2.222
      2.861        2.218
      2.904        2.218
      2.911        2.217
      2.911        2.216
      2.921        2.216
      2.921        2.2205
      2.94         2.2205
      2.94         2.242
      2.941        2.242
      2.941        2.284
      2.811        2.414
      2.807        2.419
      2.806        2.423
      2.788        2.423
      2.788        2.433
      2.784        2.434
      2.779        2.438
      2.77         2.447
      2.766        2.452
      2.765        2.459
      2.765        2.544
      2.766        2.551
      2.77         2.556
      2.78         2.566
      2.785        2.57
      2.788        2.571
      2.788        2.582
      2.842        2.582
      2.842        2.544
      2.853        2.555
      2.853        2.582
      2.907        2.582
      2.907        2.546
      2.918        2.557
      2.918        2.582
      2.972        2.582
      2.972        2.542
      2.984        2.554
      2.984        2.581
      3.038        2.581
      3.038        2.558
      3.048        2.568
      3.048        2.582
      3.102        2.582
      3.102        2.528
      3.062        2.528
      3.062        2.518
      3.06         2.518
      3.06         2.488
      3.062        2.488
      3.062        2.475
      3.102        2.475
      3.102        2.421
      3.091        2.421
      3.091        2.416
      3.09         2.409
      3.086        2.404
      3.075        2.392
      3.086        2.392
      3.097        2.402
      3.102        2.406
      3.105        2.407
      3.105        2.452
      3.108        2.452
      3.108        2.588
      3.102        2.589
      3.102        2.583
      3.048        2.583
      3.048        2.593
      3.038        2.593
      3.038        2.582
      2.984        2.582
      2.984        2.593
      2.972        2.593
      2.972        2.583
      2.918        2.583
      2.918        2.593
      2.907        2.593
      2.907        2.583
      2.853        2.583
      2.853        2.593
      2.842        2.593
      2.842        2.583
      2.788        2.583
      2.788        2.637
      2.842        2.637
      2.842        2.627
      2.853        2.627
      2.853        2.637
      2.907        2.637
      2.907        2.627
      2.918        2.627
      2.918        2.637
      2.972        2.637
      2.972        2.627
      2.984        2.627
      2.984        2.636
      3.038        2.636
      3.038        2.627
      3.048        2.627
      3.048        2.637
      3.102        2.637
      3.102        2.631
      3.108        2.632
      3.108        2.717
      2.437        2.718
      2.437        2.402
      2.44         2.402
      2.44         2.318
      2.391        2.318
      2.391        2.323
      2.39         2.323
      2.39         2.3
      2.34         2.3
      2.34         2.299
      2.39         2.299
      2.39         2.247
      2.394        2.25
      2.394        2.309
      2.443        2.309
      2.443        2.225
      2.418        2.225
      2.411        2.219
      2.411        2.2
      2.409        2.2
      2.409        2.1645
      2.379        2.1645
      2.379        2.2
      2.377        2.2
      2.377        2.226
      2.378        2.233
      2.382        2.238
      2.388        2.245
      2.371        2.245
      2.371        2.2
      2.369        2.2
      2.369        2.1645
      2.351        2.1645
      2.351        2.147
      2.321        2.147
      2.321        2.157
      2.341        2.157
      2.341        2.167
      2.321        2.167
      2.321        2.176
      2.322        2.183
      2.338        2.183
      2.338        2.219
      2.337        2.219
      2.337        2.245
      2.336        2.245
      2.336        2.247
      2.298124     2.247        2.286609     2.24042      0
      2.296        2.249785
      2.296        2.288215     2.286032     2.298        0
      2.296        2.307785
      2.296        2.336
      2.336        2.336
      2.336        2.354
      2.342344     2.354        2.351        2.364988     0
      2.359656     2.354
      2.366        2.354
      2.369        2.356
      2.376        2.357
      2.391        2.357
      2.391        2.402
      2.393        2.402
      2.393        2.704
      1.922        2.476
      1.922        2.342
      1.924        2.342
      1.924        2.298
      1.923        2.298
      1.923        2.255
      1.873        2.255
      1.873        2.257
      1.865        2.257
      1.865        2.238
      1.814        2.238
      1.814        2.237
      1.865        2.237
      1.865        2.208
      1.867        2.205
      1.868        2.198
      1.868        2.158
      1.866        2.158
      1.866        2.1215
      1.848        2.1215
      1.848        2.105
      1.816        2.105
      1.816        2.115
      1.838        2.115
      1.838        2.125
      1.816        2.125
      1.816        2.133
      1.816839     2.138871
      1.817115     2.138968
      1.817188     2.139
      1.83         2.139
      1.83         2.149571
      1.833        2.15
      1.834        2.15
      1.834        2.183
      1.814        2.183
      1.814        2.17
      1.816        2.168
      1.816388     2.165287     1.811991     2.152087     0
      1.806812     2.165
      1.802985     2.165        1.8          2.161045     0
      1.797015     2.165
      1.772        2.165
      1.772        2.163
      1.765        2.163
      1.765        2.247
      1.811        2.247
      1.811        2.292
      1.865        2.292
      1.865        2.291
      1.873        2.291
      1.873        2.299
      1.875        2.299
      1.875        2.342
      1.878        2.342
      1.878        2.467
      1.351        2.467
      1.351        2.312
      1.355        2.312
      1.355        2.228
      1.312        2.228
      1.312        2.223
      1.258        2.223
      1.258        2.277
      1.306        2.277
      1.306        2.312
      1.307        2.312
      1.307        2.489
      1.308        2.498
      1.313        2.505
      1.32         2.51
      1.329        2.511
      1.893        2.511
    P 5
      1.311        1.903
      1.311        1.9375
      1.321        1.9375
      1.321        1.903
      1.311        1.903
    P 5
      1.331        1.903
      1.331        1.9375
      1.341        1.9375
      1.341        1.903
      1.331        1.903
    P 140
      1.487        1.708
      1.479        1.71
      1.473        1.714
      1.419        1.768
      1.393        1.768
      1.393        1.822
      1.441        1.822
      1.441        1.823
      1.393        1.823
      1.393        1.85
      1.39         1.854
      1.39         1.803
      1.34         1.803
      1.34         1.882
      1.349        1.882
      1.349        1.901
      1.351        1.901
      1.351        1.9375
      1.381        1.9375
      1.381        1.901
      1.383        1.901
      1.383        1.882
      1.389        1.882
      1.389        1.901
      1.391        1.901
      1.391        1.9375
      1.429        1.9375
      1.429        1.955
      1.463        1.955
      1.463        1.945
      1.439        1.945
      1.439        1.935
      1.463        1.935
      1.463        1.92
      1.462        1.913
      1.458        1.908
      1.453        1.904
      1.446        1.903
      1.431        1.903
      1.431        1.927
      1.421        1.927
      1.421        1.901
      1.423        1.901
      1.423        1.877
      1.447        1.877
      1.447        1.872
      1.49         1.872
      1.49         1.793
      1.45         1.793
      1.495        1.748
      1.96         1.748
      1.96         1.808
      1.953        1.808
      1.953        1.862
      2.006        1.862
      2.006        1.863
      1.953        1.863
      1.953        1.917
      1.954        1.917
      1.954        1.941
      1.956        1.941
      1.956        1.9765
      1.994        1.9765
      1.994        1.995
      2.025        1.995
      2.025        1.985
      2.004        1.985
      2.004        1.975
      2.025        1.975
      2.025        1.966
      2.024506     1.962544     2.020987     1.949007     0
      2.007        1.949
      1.996        1.949
      1.996        1.967
      1.986        1.967
      1.986        1.941
      1.988        1.941
      1.988        1.917
      2.007        1.917
      2.007        1.912
      2.055        1.912
      2.055        1.868
      2.047        1.868
      2.047        1.867
      2.055        1.867
      2.055        1.823
      2.007        1.823
      2.007        1.808
      2            1.808
      2            1.748
      2.329        1.748
      2.359        1.778
      2.365        1.782
      2.373        1.784
      2.458        1.784
      2.458        1.787
      2.464        1.787
      2.464        1.838
      2.457        1.838
      2.457        1.892
      2.51         1.892
      2.51         1.893
      2.457        1.893
      2.457        1.983
      2.459        1.983
      2.459        2.0195
      2.497        2.0195
      2.497        2.037
      2.53         2.037
      2.53         2.027
      2.507        2.027
      2.507        2.017
      2.53         2.017
      2.53         2.009
      2.529579     2.006056     2.520996     1.995005     0
      2.507329     1.992
      2.499        1.992
      2.499        2.009
      2.489        2.009
      2.489        1.983
      2.491        1.983
      2.491        1.947
      2.51         1.947
      2.51         1.952
      2.559        1.952
      2.559        1.873
      2.511        1.873
      2.511        1.862
      2.553        1.862
      2.553        1.822
      2.555        1.822
      2.555        1.778
      2.512        1.778
      2.512        1.733
      2.458        1.733
      2.458        1.744
      2.381        1.744
      2.351        1.714
      2.345        1.71
      2.337        1.708
    P 17
      1.351        2.0825
      1.351        2.12
      1.361        2.12
      1.361        2.092
      1.371        2.092
      1.371        2.12
      1.401        2.12
      1.401        2.092
      1.411        2.092
      1.411        2.12
      1.421        2.12
      1.421        2.0825
      1.391        2.0825
      1.391        2.118
      1.381        2.118
      1.381        2.0825
      1.351        2.0825
    P 5
      1.429        1.965
      1.429        1.975
      1.463        1.975
      1.463        1.965
      1.429        1.965
    P 5
      1.429        1.985
      1.429        1.995
      1.463        1.995
      1.463        1.985
      1.429        1.985
    P 5
      1.429        2.005
      1.429        2.015
      1.463        2.015
      1.463        2.005
      1.429        2.005
    P 13
      1.475        2.018
      1.475        2.023
      1.465        2.023
      1.465        2.025
      1.429        2.025
      1.429        2.055
      1.465        2.055
      1.465        2.057
      1.475        2.057
      1.475        2.062
      1.525        2.062
      1.525        2.018
      1.475        2.018
    P 13
      1.431        2.12
      1.445588     2.12         1.458985     2.123981     0
      1.461771     2.110286
      1.462        2.11
      1.463        2.103
      1.463        2.085
      1.439        2.085
      1.439        2.075
      1.463        2.075
      1.463        2.065
      1.429        2.065
      1.429        2.07801      1.426039     2.081991     0
      1.431        2.082
    P 45
      1.675        1.97
      1.675        2.02
      1.678        2.02
      1.678        2.023
      1.674        2.023
      1.674        2.018
      1.576        2.018
      1.576        2.023
      1.574        2.023
      1.574        2.018
      1.526        2.018
      1.526        2.062
      1.574        2.062
      1.574        2.057
      1.576        2.057
      1.576        2.062
      1.674        2.062
      1.674        2.057
      1.678        2.057
      1.678        2.058
      1.676        2.058
      1.676        2.102
      1.724        2.102
      1.724        2.062
      1.725        2.062
      1.725        2.102
      1.775        2.102
      1.775        2.062
      1.776        2.062
      1.776        2.057
      1.812        2.057
      1.812        2.055
      1.848        2.055
      1.848        2.025
      1.812        2.025
      1.812        2.023
      1.776        2.023
      1.776        2.02
      1.779        2.02
      1.779        1.97
      1.735        1.97
      1.735        2.018
      1.719        2.018
      1.719        1.97
      1.675        1.97
    P 14
      1.846        1.975        1.845963     1.98009      0
      1.849572     1.9765
      1.866        1.9765
      1.866        1.949
      1.856        1.949
      1.856        1.967
      1.846        1.967
      1.846        1.949
      1.833        1.949
      1.826        1.95
      1.821        1.954
      1.817        1.959
      1.816        1.966
      1.816        1.975
    P 10
      1.816        1.985
      1.816        1.995
      1.838        1.995
      1.838        2.005
      1.816        2.005
      1.816        2.015
      1.848        2.015
      1.848        1.989072
      1.843928     1.985
      1.816        1.985
    P 5
      1.816        2.065
      1.816        2.075
      1.848        2.075
      1.848        2.065
      1.816        2.065
    P 5
      1.816        2.085
      1.816        2.095
      1.848        2.095
      1.848        2.085
      1.816        2.085
    P 13
      1.868        1.865
      1.868        1.914
      1.914        1.914
      1.914        1.941
      1.916        1.941
      1.916        1.9765
      1.946        1.9765
      1.946        1.941
      1.948        1.941
      1.948        1.914
      1.952        1.914
      1.952        1.865
      1.868        1.865
    P 13
      1.876        2.1215
      1.876        2.158
      1.874        2.158
      1.874        2.186
      1.875        2.193
      1.875        2.252
      1.924        2.252
      1.924        2.173
      1.908        2.173
      1.908        2.158
      1.906        2.158
      1.906        2.1215
      1.876        2.1215
    P 5
      1.876        1.949
      1.876        1.9765
      1.886        1.9765
      1.886        1.949
      1.876        1.949
    P 5
      1.896        1.949
      1.896        1.9765
      1.906        1.9765
      1.906        1.949
      1.896        1.949
    P 5
      1.916        2.1215
      1.916        2.15
      1.926        2.15
      1.926        2.1215
      1.916        2.1215
    P 5
      1.936        2.1215
      1.936        2.15
      1.946        2.15
      1.946        2.1215
      1.936        2.1215
    P 5
      1.956        2.1215
      1.956        2.15
      1.966        2.15
      1.966        2.1215
      1.956        2.1215
    P 16
      1.994        2.105
      1.994        2.1215
      1.976        2.1215
      1.976        2.15
      1.986        2.15
      1.986        2.132
      1.996        2.132
      1.996        2.15
      2.006329     2.15         2.019997     2.152992     0
      2.024057     2.139603
      2.025        2.133
      2.025        2.125
      2.004        2.125
      2.004        2.115
      2.025        2.115
      2.025        2.105
    P 5
      1.994        2.005
      1.994        2.015
      2.025        2.015
      2.025        2.005
      1.994        2.005
    P 5
      1.994        2.025
      1.994        2.035
      2.025        2.035
      2.025        2.025
      1.994        2.025
    P 5
      1.994        2.045
      1.994        2.055
      2.025        2.055
      2.025        2.045
      1.994        2.045
    P 20
      2.048        2.058
      2.039        2.059
      2.034        2.063
      2.03         2.063
      2.03         2.065
      1.994        2.065
      1.994        2.095
      2.03         2.095
      2.03         2.097
      2.034        2.097
      2.039        2.101
      2.048        2.102
      2.157        2.102
      2.157        2.104
      2.205        2.104
      2.205        2.06
      2.181        2.06
      2.18         2.059
      2.171        2.058
      2.048        2.058
    P 15
      2.207        2.06
      2.207        2.104
      2.284        2.104
      2.293        2.103
      2.298        2.099
      2.315        2.099
      2.315        2.097
      2.351        2.097
      2.351        2.067
      2.315        2.067
      2.315        2.065
      2.298        2.065
      2.293        2.061
      2.284        2.06
      2.207        2.06
    P 5
      2.296        2.219
      2.303        2.22
      2.308        2.219286
      2.308        2.219
      2.296        2.219
    P 17
      2.351        2.037
      2.351        2.0195
      2.369        2.0195
      2.369        1.992
      2.359        1.992
      2.359        2.009
      2.349        2.009
      2.349        1.992
      2.338        1.992
      2.333979     1.992574     2.320026     1.992025     0
      2.32144      2.005917
      2.321        2.009
      2.321        2.017
      2.341        2.017
      2.341        2.027
      2.321        2.027
      2.321        2.037
    P 5
      2.321        2.047
      2.321        2.057
      2.351        2.057
      2.351        2.047
      2.321        2.047
    P 9
      2.321        2.107
      2.321        2.117
      2.341        2.117
      2.341        2.127
      2.321        2.127
      2.321        2.137
      2.351        2.137
      2.351        2.107
      2.321        2.107
    P 13
      2.376        1.908
      2.376        1.957
      2.417        1.957
      2.417        1.983
      2.419        1.983
      2.419        2.0195
      2.449        2.0195
      2.449        1.983
      2.451        1.983
      2.451        1.957
      2.455        1.957
      2.455        1.908
      2.376        1.908
    P 9
      2.379        1.992
      2.379        2.0195
      2.409        2.0195
      2.409        1.992
      2.399        1.992
      2.399        2.009
      2.389        2.009
      2.389        1.992
      2.379        1.992
    P 9
      2.419        2.1645
      2.419        2.193
      2.429        2.193
      2.429        2.174
      2.439        2.174
      2.439        2.193
      2.449        2.193
      2.449        2.1645
      2.419        2.1645
    P 77
      2.755        1.725
      2.763        1.723
      2.769        1.719
      2.879101     1.608899     2.889819     1.614819     0
      2.883899     1.604101
      2.912        1.576
      2.957        1.576
      2.957        1.582
      3.026        1.582
      3.026        1.571
      3.03         1.568
      3.092        1.507
      3.128        1.507
      3.128        1.456
      3.059        1.456
      3.059        1.491
      3.026        1.523
      3.026        1.456
      3.012        1.456
      3.012        1.418
      3.019        1.418
      3.019        1.364
      3.01         1.364
      3.01         1.362
      3.017        1.362
      3.017        1.308
      2.963        1.308
      2.963        1.362
      2.97         1.362
      2.97         1.364
      2.965        1.364
      2.965        1.418
      2.972        1.418
      2.972        1.456
      2.957        1.456
      2.957        1.499
      2.822        1.499
      2.814        1.501
      2.808        1.505
      2.793        1.52
      2.721        1.52
      2.721        1.553
      2.525        1.553
      2.489        1.517
      2.489        1.372
      2.512        1.372
      2.512        1.298
      2.489        1.298
      2.489        1.283
      2.51         1.262
      2.562        1.262
      2.562        1.188
      2.478        1.188
      2.478        1.238
      2.455        1.261
      2.451        1.267
      2.449        1.275
      2.449        1.298
      2.428        1.298
      2.428        1.372
      2.449        1.372
      2.449        1.525
      2.451        1.533
      2.455        1.539
      2.503        1.587
      2.509        1.591
      2.517        1.593
      2.721        1.593
      2.721        1.623
      2.809        1.623
      2.747        1.685
      2.512        1.685
      2.512        1.678
      2.458        1.678
      2.458        1.732
      2.512        1.732
      2.512        1.725
    P 23
      2.497        2.147
      2.497        2.1645
      2.459        2.1645
      2.459        2.193
      2.469        2.193
      2.469        2.174
      2.479        2.174
      2.479        2.193
      2.489        2.193
      2.489        2.174
      2.499        2.174
      2.499        2.193
      2.513        2.193
      2.52         2.192
      2.525        2.188
      2.529        2.183
      2.53         2.176
      2.53         2.167
      2.507        2.167
      2.507        2.157
      2.53         2.157
      2.53         2.147
      2.497        2.147
    P 5
      2.497        2.047
      2.497        2.057
      2.53         2.057
      2.53         2.047
      2.497        2.047
    P 5
      2.497        2.067
      2.497        2.077
      2.53         2.077
      2.53         2.067
      2.497        2.067
    P 5
      2.497        2.087
      2.497        2.097
      2.53         2.097
      2.53         2.087
      2.497        2.087
    P 13
      2.55         2.098
      2.55         2.105
      2.533        2.105
      2.533        2.107
      2.497        2.107
      2.497        2.137
      2.533        2.137
      2.533        2.139
      2.55         2.139
      2.55         2.142
      2.599        2.142
      2.599        2.098
      2.55         2.098
    P 126
      3.79         1.185
      3.778        1.188
      3.767        1.195
      3.76         1.206
      3.757        1.218
      3.758        1.222
      3.691        1.289
      3.638        1.289
      3.638        1.313
      3.56         1.313
      3.56         1.291
      3.476        1.291
      3.476        1.312
      3.188        1.312
      3.059        1.183
      3.053        1.179
      3.045        1.177
      3.04         1.178
      2.721        1.178
      2.713        1.18
      2.707        1.184
      2.686        1.205
      2.652        1.205
      2.652        1.188
      2.568        1.188
      2.568        1.262
      2.59         1.262
      2.59         1.293
      2.553        1.293
      2.553        1.377
      2.637        1.377
      2.637        1.293
      2.63         1.293
      2.63         1.262
      2.652        1.262
      2.652        1.245
      2.694        1.245
      2.702        1.243
      2.708        1.239
      2.715889     1.231111     2.728945     1.235945     0
      2.724111     1.222889
      2.729        1.218
      3.038        1.218
      3.141        1.321
      3.141        1.618
      2.911        1.618
      2.903        1.62
      2.900621     1.621586     2.890075     1.615076     0
      2.894258     1.626742
      2.77         1.751
      2.743        1.751
      2.734        1.755
      2.73         1.764
      2.73         1.866
      2.734        1.875
      2.743        1.879
      2.819        1.879
      2.828        1.875
      2.832        1.866
      2.832        1.836188     2.844958     1.831        0
      2.832        1.825812
      2.832        1.764
      2.828        1.755
      2.824        1.753
      2.919        1.658
      3.161        1.658
      3.169        1.656
      3.175        1.652
      3.179        1.646
      3.181        1.638
      3.181        1.352
      3.476        1.352
      3.476        1.375
      3.56         1.375
      3.56         1.353
      3.638        1.353
      3.638        1.373
      3.712        1.373
      3.712        1.324
      3.786        1.25
      3.79         1.251
      4.345        1.251
      4.345        1.685
      4.347        1.693
      4.351        1.699
      4.41         1.758
      4.416        1.762
      4.424        1.764
      4.477        1.764
      4.477        1.768
      4.521        1.768
      4.521        1.764
      4.572        1.764
      4.572        1.772
      4.573        1.781
      4.579        1.789
      4.587        1.795
      4.596        1.796
      4.605        1.795
      4.613        1.789
      4.619        1.781
      4.62         1.772
      4.62         1.716
      4.619        1.707
      4.613        1.699
      4.605        1.693
      4.596        1.692
      4.587        1.693
      4.579        1.699
      4.573        1.707
      4.572        1.716
      4.572        1.724
      4.521        1.724
      4.521        1.719
      4.477        1.719
      4.477        1.724
      4.432        1.724
      4.385        1.677
      4.385        1.243
      4.388        1.241
      4.395        1.23
      4.398        1.218
      4.395        1.206
      4.388        1.195
      4.377        1.188
      4.365        1.185
    P 5
      2.601        2.098
      2.601        2.142
      2.701        2.142
      2.701        2.098
      2.601        2.098
    P 17
      2.718        2.283
      2.718        2.297
      2.704        2.297
      2.704        2.288
      2.655        2.288
      2.655        2.372
      2.664        2.372
      2.664        2.407
      2.668        2.416
      2.677        2.42
      2.781        2.42
      2.79         2.416
      2.794        2.407
      2.794        2.31
      2.792        2.305
      2.792        2.283
      2.718        2.283
    P 25
      2.764        1.228
      2.756        1.23
      2.75         1.234
      2.741263     1.242737     2.729146     1.236146     0
      2.735737     1.248263
      2.714        1.27
      2.71         1.276
      2.708        1.284
      2.682        1.284
      2.682        1.319344     2.671012     1.328        0
      2.682        1.336656
      2.682        1.386
      2.769        1.386
      2.769        1.284
      2.756        1.284
      2.772        1.268
      2.952        1.268
      2.963        1.279
      2.963        1.307
      3.017        1.307
      3.017        1.253
      2.993        1.253
      2.974        1.234
      2.968        1.23
      2.96         1.228
    P 9
      2.732        2.06
      2.732        2.098
      2.703        2.098
      2.703        2.142
      2.802        2.142
      2.802        2.098
      2.776        2.098
      2.776        2.06
      2.732        2.06
    P 20
      2.828        2.097
      2.821        2.098
      2.803        2.098
      2.803        2.142
      2.852        2.142
      2.852        2.141
      2.896        2.141
      2.905        2.14
      2.91         2.136
      2.919        2.136
      2.919        2.134
      2.963        2.134
      2.963        2.109072
      2.957928     2.104
      2.919        2.104
      2.919        2.102
      2.91         2.102
      2.905        2.098
      2.896        2.097
      2.828        2.097
    P 9
      2.960928     2.174
      2.963        2.171928
      2.963        2.164
      2.919        2.164
      2.919        2.162
      2.911665     2.162        2.903123     2.153208     0
      2.907        2.164837
      2.907        2.166928
      2.914072     2.174
    P 15
      2.973        2.058
      2.963        2.058
      2.963        2.082
      2.953        2.082
      2.953        2.058
      2.938        2.058
      2.931        2.059
      2.926        2.063
      2.922        2.068
      2.921        2.075
      2.921        2.094
      2.96         2.094        2.959963     2.099091     0
      2.963536     2.095464
      2.972072     2.104
      2.973        2.104
    P 5
      2.921        2.144
      2.921        2.154
      2.963        2.154
      2.963        2.144
      2.921        2.144
    P 5
      2.983        2.058
      2.983        2.104
      2.993        2.104
      2.993        2.058
      2.983        2.058
    P 5
      3.003        2.058
      3.003        2.104
      3.013        2.104
      3.013        2.058
      3.003        2.058
    P 5
      3.023        2.058
      3.023        2.104
      3.033        2.104
      3.033        2.058
      3.023        2.058
    P 17
      3.043        2.104
      3.044928     2.104
      3.054464     2.094464     3.058001     2.098005     0
      3.058        2.093
      3.082        2.093        3.082015     2.097916     0
      3.084987     2.094
      3.095        2.094
      3.095        2.075
      3.094        2.068
      3.09         2.063
      3.085        2.059
      3.078        2.058
      3.063        2.058
      3.063        2.082
      3.053        2.082
      3.053        2.058
      3.043        2.058
    P 30
      3.113        2.097
      3.104        2.098
      3.099        2.102
      3.097        2.102
      3.097        2.104
      3.071        2.104
      3.071        2.103
      3.060072     2.103
      3.053        2.110072
      3.053        2.134
      3.097        2.134
      3.097        2.136
      3.099        2.136
      3.104        2.14
      3.113        2.141
      3.326        2.141
      3.326        2.142
      3.424        2.142
      3.424        2.137
      3.48         2.137
      3.48         2.135
      3.516        2.135
      3.516        2.105
      3.48         2.105
      3.48         2.103
      3.424        2.103
      3.424        2.098
      3.357        2.098
      3.35         2.097
      3.113        2.097
    P 5
      3.053        2.144
      3.053        2.154
      3.095        2.154
      3.095        2.144
      3.053        2.144
    P 30
      3.486        2.185
      3.486        2.195
      3.506        2.195
      3.506        2.205
      3.486        2.205
      3.486        2.214
      3.487        2.221
      3.491        2.226
      3.496        2.23
      3.502        2.231
      3.502        2.273
      3.481        2.273
      3.481        2.283
      3.48         2.283
      3.48         2.26
      3.436        2.26
      3.436        2.349
      3.48         2.349
      3.48         2.317
      3.481        2.317
      3.481        2.327
      3.535        2.327
      3.535        2.296
      3.536        2.289
      3.536        2.238
      3.534        2.238
      3.534        2.2015
      3.516        2.2015
      3.516        2.185
      3.486        2.185
    P 16
      3.516        2.075
      3.516        2.06399      3.518961     2.060009     0
      3.514        2.06
      3.514        2.03
      3.503        2.03
      3.496        2.031
      3.491        2.035
      3.487        2.04
      3.486        2.047
      3.486        2.055
      3.506        2.055
      3.506        2.065
      3.486        2.065
      3.486        2.068
      3.482        2.073
      3.481714     2.075
    P 7
      3.481714     2.085
      3.482        2.087
      3.486        2.092
      3.486        2.095
      3.516        2.095
      3.516        2.085
      3.481714     2.085
    P 9
      3.486        2.145
      3.486        2.155
      3.506        2.155
      3.506        2.165
      3.486        2.165
      3.486        2.175
      3.516        2.175
      3.516        2.145
      3.486        2.145
    P 9
      3.524        2.03
      3.524        2.0565
      3.554        2.0565
      3.554        2.03
      3.544        2.03
      3.544        2.047
      3.534        2.047
      3.534        2.03
      3.524        2.03
    P 13
      3.544        2.2015
      3.544        2.238
      3.542        2.238
      3.542        2.276
      3.543        2.283
      3.543        2.342
      3.592        2.342
      3.592        2.263
      3.576        2.263
      3.576        2.238
      3.574        2.238
      3.574        2.2015
      3.544        2.2015
    P 5
      3.564        2.03
      3.564        2.0565
      3.574        2.0565
      3.574        2.03
      3.564        2.03
    P 76
      3.664        1.786
      3.656        1.788
      3.65         1.792
      3.648        1.796
      3.644        1.798
      3.64         1.804
      3.638        1.812
      3.638        1.878
      3.631        1.878
      3.631        1.932
      3.685        1.932
      3.685        1.933
      3.631        1.933
      3.631        1.964
      3.623        1.974
      3.622        1.977
      3.622        1.913
      3.573        1.913
      3.573        1.997
      3.582        1.997
      3.582        2.021
      3.584        2.021
      3.584        2.0565
      3.614        2.0565
      3.614        2.021
      3.616        2.021
      3.616        1.997
      3.622        1.997
      3.622        2.021
      3.624        2.021
      3.624        2.0565
      3.662        2.0565
      3.662        2.075
      3.699286     2.075
      3.699        2.073
      3.695        2.068
      3.695        2.065
      3.672        2.065
      3.672        2.055
      3.695        2.055
      3.695        2.047        3.694045     2.032998     0
      3.680268     2.030324
      3.678        2.03
      3.664        2.03
      3.664        2.047
      3.654        2.047
      3.654        2.021
      3.656        2.021
      3.656        1.988
      3.658        1.987
      3.734        1.987
      3.734        1.903
      3.685        1.903
      3.685        1.878
      3.678        1.878
      3.678        1.826
      4.023        1.826
      4.023        1.831
      4.077        1.831
      4.077        1.824
      4.348        1.824
      4.348        1.924
      4.342        1.924
      4.342        1.978
      4.396        1.978
      4.396        1.924
      4.388        1.924
      4.388        1.804
      4.386        1.796
      4.382        1.79
      4.376        1.786
      4.368        1.784
      4.077        1.784
      4.077        1.777
      4.023        1.777
      4.023        1.786
    P 5
      3.584        2.2015
      3.584        2.231
      3.594        2.231
      3.594        2.2015
      3.584        2.2015
    P 9
      3.604        2.2015
      3.604        2.231
      3.614        2.231
      3.614        2.212
      3.624        2.212
      3.624        2.231
      3.634        2.231
      3.634        2.2015
      3.604        2.2015
    P 66
      4.03         1.722
      4.023        1.722
      4.023        1.776
      4.077        1.776
      4.077        1.722
      4.07         1.722
      4.07         1.531
      4.084        1.531
      4.084        1.521
      4.085        1.521
      4.09         1.517
      4.151        1.457
      4.186        1.457
      4.186        1.406
      4.116        1.406
      4.116        1.442
      4.084        1.474
      4.084        1.406
      4.067        1.406
      4.067        1.376
      4.077        1.376
      4.077        1.322
      4.052        1.322
      4.052        1.306
      4.062        1.306
      4.062        1.252
      4.008        1.252
      4.008        1.306
      4.018        1.306
      4.018        1.338
      4.019        1.345
      4.023        1.35
      4.023        1.376
      4.033        1.376
      4.033        1.406
      4.016        1.406
      4.016        1.455
      3.98         1.455
      3.973        1.456
      3.968        1.46
      3.898        1.53
      3.817        1.53
      3.817        1.574
      3.712        1.574
      3.712        1.552
      3.695        1.552
      3.695        1.463
      3.712        1.463
      3.712        1.379
      3.638        1.379
      3.638        1.463
      3.655        1.463
      3.655        1.552
      3.638        1.552
      3.638        1.636
      3.712        1.636
      3.712        1.614
      3.817        1.614
      3.817        1.633
      3.914215     1.633        3.923902     1.642813     0
      3.92         1.629588
      3.92         1.556
      3.987        1.489
      4.016        1.489
      4.016        1.531
      4.03         1.531
    P 19
      3.662        2.185
      3.662        2.2015
      3.644        2.2015
      3.644        2.231
      3.654        2.231
      3.654        2.212
      3.664        2.212
      3.664        2.231
      3.678        2.231
      3.685        2.23
      3.69         2.226
      3.694        2.221
      3.695        2.214
      3.695        2.205
      3.672        2.205
      3.672        2.195
      3.692        2.195        3.705976     2.194996     0
      3.695        2.186344
      3.695        2.185
    P 6
      3.662        2.085
      3.662        2.095
      3.695        2.095
      3.695        2.092
      3.699        2.087        3.696725     2.086146     1
      3.698868     2.085
    P 8
      3.698        2.115
      3.698        2.115803     3.708425     2.121874     0
      3.699163     2.114144
      3.699        2.113
      3.695        2.108
      3.695        2.105
      3.662        2.105
      3.662        2.115
    P 6
      3.662        2.125
      3.662        2.135
      3.695        2.135
      3.695        2.132
      3.69737      2.129037     3.709839     2.123052     0
      3.696146     2.125
    P 19
      3.719        2.138
      3.71         2.139
      3.705        2.143
      3.698        2.143
      3.698        2.145
      3.662        2.145
      3.662        2.175
      3.698        2.175
      3.698        2.177
      3.705        2.177
      3.71         2.181
      3.719        2.182
      3.841        2.182
      3.841        2.183
      3.889        2.183
      3.889        2.139
      3.87         2.139
      3.863        2.138
      3.719        2.138
    P 18
      3.953        1.252
      3.953        1.257
      3.849        1.257
      3.842        1.258
      3.837        1.262
      3.81         1.289
      3.806        1.294
      3.778        1.294
      3.778        1.396
      3.865        1.396
      3.865        1.294
      3.854        1.294
      3.856        1.291
      3.953        1.291
      3.953        1.306
      4.007        1.306
      4.007        1.252
      3.953        1.252
    P 9
      3.913        2.096
      3.913        2.139
      3.891        2.139
      3.891        2.183
      3.984        2.183
      3.984        2.139
      3.957        2.139
      3.957        2.096
      3.913        2.096
    P 5
      3.986        2.139
      3.986        2.183
      4.11         2.183
      4.11         2.139
      3.986        2.139
    P 13
      4.111        2.139
      4.111        2.183
      4.16         2.183
      4.16         2.178
      4.196        2.178
      4.196        2.176
      4.232        2.176
      4.232        2.146
      4.196        2.146
      4.196        2.144
      4.16         2.144
      4.16         2.139
      4.111        2.139
    P 14
      4.25         2.069
      4.24         2.069
      4.24         2.088
      4.23         2.088
      4.23         2.069
      4.219        2.069
      4.212        2.07
      4.207        2.074
      4.203        2.079
      4.202        2.086
      4.202        2.096
      4.23         2.096        4.229756     2.101877     0
      4.234572     2.0985
      4.25         2.0985
    P 10
      4.202        2.106
      4.202        2.116
      4.222        2.116
      4.222        2.126
      4.202        2.126
      4.202        2.136
      4.232        2.136
      4.232        2.110072
      4.227928     2.106
      4.202        2.106
    P 5
      4.202        2.186
      4.202        2.196
      4.232        2.196
      4.232        2.186
      4.202        2.186
    P 5
      4.202        2.206
      4.202        2.216
      4.232        2.216
      4.232        2.206
      4.202        2.206
    P 5
      4.26         2.069
      4.26         2.0985
      4.27         2.0985
      4.27         2.069
      4.26         2.069
    P 5
      4.28         2.069
      4.28         2.0985
      4.29         2.0985
      4.29         2.069
      4.28         2.069
    P 13
      4.285        1.959
      4.285        2.038
      4.298        2.038
      4.298        2.062
      4.3          2.062
      4.3          2.0985
      4.33         2.0985
      4.33         2.062
      4.332        2.062
      4.332        2.038
      4.333        2.038
      4.333        1.959
      4.285        1.959
    P 5
      4.3          2.2435
      4.3          2.27
      4.31         2.27
      4.31         2.2435
      4.3          2.2435
    P 5
      4.32         2.2435
      4.32         2.27
      4.33         2.27
      4.33         2.2435
      4.32         2.2435
    P 24
      4.449        1.959
      4.399        1.959
      4.399        1.989
      4.396        1.989
      4.396        1.979
      4.342        1.979
      4.342        2.009
      4.339        2.013
      4.338        2.02
      4.338        2.062
      4.34         2.062
      4.34         2.0985
      4.365047     2.0985
      4.37         2.091424
      4.37         2.062
      4.372        2.062
      4.372        2.033
      4.396        2.033
      4.396        2.023
      4.399        2.023
      4.399        2.034329     4.396069     2.047851     0
      4.405785     2.038
      4.448344     2.038
      4.449        2.037517
    P 5
      4.34         2.2435
      4.34         2.27
      4.35         2.27
      4.35         2.2435
      4.34         2.2435
    P 16
      4.378        2.226
      4.378        2.2435
      4.36         2.2435
      4.36         2.27
      4.37         2.27
      4.37         2.253
      4.38         2.253
      4.38         2.27
      4.389037     2.27         4.402991     2.268994     0
      4.41041      2.257133
      4.411        2.253
      4.411        2.246
      4.388        2.246
      4.388        2.236
      4.411        2.236
      4.411        2.226
    P 16
      4.411        2.116
      4.411        2.106
      4.388        2.106
      4.388        2.096
      4.411        2.096
      4.411        2.086
      4.41         2.079
      4.406        2.074
      4.401        2.07
      4.394        2.069
      4.38         2.069
      4.379999     2.093016     4.374806     2.092941     0
      4.379115     2.09584
      4.377253     2.0985
      4.378        2.0985
      4.378        2.116
    P 5
      4.378        2.126
      4.378        2.136
      4.411        2.136
      4.411        2.126
      4.378        2.126
    P 5
      4.378        2.146
      4.378        2.156
      4.411        2.156
      4.411        2.146
      4.378        2.146
    P 5
      4.378        2.166
      4.378        2.176
      4.411        2.176
      4.411        2.166
      4.378        2.166
    P 13
      4.43         2.179
      4.43         2.184
      4.414        2.184
      4.414        2.186
      4.378        2.186
      4.378        2.216
      4.414        2.216
      4.414        2.218
      4.43         2.218
      4.43         2.223
      4.478        2.223
      4.478        2.179
      4.43         2.179
    P 5
      4.417        1.422
      4.417        1.476
      4.471        1.476
      4.471        1.422
      4.417        1.422
    P 46
      4.646        1.472
      4.637        1.473
      4.629        1.479
      4.623        1.487
      4.622        1.496
      4.622        1.552
      4.623        1.561
      4.626        1.565
      4.609        1.583
      4.533        1.583
      4.533        1.572
      4.479        1.572
      4.479        1.582
      4.473        1.582
      4.473        1.572
      4.462        1.572
      4.462        1.531
      4.471        1.531
      4.471        1.477
      4.417        1.477
      4.417        1.531
      4.428        1.531
      4.428        1.572
      4.419        1.572
      4.419        1.626
      4.473        1.626
      4.473        1.616
      4.479        1.616
      4.479        1.626
      4.533        1.626
      4.533        1.617
      4.616        1.617
      4.623        1.616
      4.628        1.612
      4.656        1.584
      4.66         1.579
      4.661        1.572
      4.661        1.571
      4.663        1.569
      4.669        1.561
      4.67         1.552
      4.67         1.496
      4.669        1.487
      4.663        1.479
      4.655        1.473
      4.646        1.472
    P 44
      4.419        1.627
      4.419        1.681
      4.473        1.681
      4.473        1.673
      4.479        1.673
      4.479        1.681
      4.533        1.681
      4.533        1.673
      4.654        1.673
      4.678        1.697
      4.678        1.7
      4.673        1.707
      4.672        1.716
      4.672        1.772
      4.673        1.781
      4.679        1.789
      4.679        1.822
      4.668        1.822
      4.668        1.876
      4.722        1.876
      4.722        1.826
      4.7205       1.826
      4.7205       1.822
      4.713        1.822
      4.713        1.789
      4.719        1.781
      4.72         1.772
      4.72         1.716
      4.719        1.707
      4.713        1.699
      4.712        1.698
      4.712        1.69
      4.711        1.683
      4.707        1.678
      4.673        1.644
      4.668        1.64
      4.661        1.639
      4.533        1.639
      4.533        1.627
      4.479        1.627
      4.479        1.639
      4.473        1.639
      4.473        1.627
      4.419        1.627
    P 35
      4.763        2.152
      4.754        2.156
      4.751        2.164
      4.748        2.158
      4.739        2.154
      4.711        2.154
      4.702        2.158
      4.698        2.167
      4.698        2.178
      4.509        2.178
      4.502        2.179
      4.479        2.179
      4.479        2.223
      4.529        2.223
      4.529        2.222
      4.698        2.222
      4.698        2.246
      4.702        2.255
      4.711        2.259
      4.739        2.259
      4.748        2.255
      4.751        2.248
      4.754        2.255
      4.763        2.259
      4.791        2.259
      4.8          2.255
      4.804        2.246
      4.804        2.223
      4.945        2.223
      4.945        2.179
      4.804        2.179
      4.804        2.165
      4.8          2.156
      4.791        2.152
      4.763        2.152
    P 49
      4.571        1.345
      4.575        1.354
      4.584        1.358
      4.591        1.358
      4.591        1.44
      4.592        1.447
      4.596        1.452
      4.601        1.456
      4.608        1.457
      4.674        1.457
      4.674        1.464
      4.679        1.464
      4.679        1.479
      4.673        1.487
      4.672        1.496
      4.672        1.552
      4.673        1.561
      4.679        1.569
      4.687        1.575
      4.696        1.576
      4.705        1.575
      4.713        1.569
      4.719        1.561
      4.72         1.552
      4.72         1.496
      4.719        1.487
      4.713        1.479
      4.713        1.464
      4.718        1.464
      4.718        1.416
      4.674        1.416
      4.674        1.423
      4.625        1.423
      4.625        1.358
      4.63         1.358
      4.639        1.354
      4.643        1.345
      4.643        1.287
      4.692        1.287
      4.692        1.233
      4.643        1.233
      4.643        1.197
      4.639        1.188
      4.63         1.184
      4.620785     1.184        4.611        1.174032     0
      4.601215     1.184
      4.584        1.184
      4.575        1.188
      4.571        1.197
    P 19
      4.596        1.472
      4.587        1.473
      4.579        1.479
      4.573        1.487
      4.572        1.496
      4.572        1.552
      4.573        1.561
      4.579        1.569
      4.587        1.575
      4.596        1.576
      4.605        1.575
      4.613        1.569
      4.619        1.561
      4.62         1.552
      4.62         1.496
      4.619        1.487
      4.613        1.479
      4.605        1.473
      4.596        1.472
    P 5
      4.668        1.877
      4.668        1.931
      4.722        1.931
      4.722        1.877
      4.668        1.877
    P 19
      4.746        1.472
      4.737        1.473
      4.729        1.479
      4.723        1.487
      4.722        1.496
      4.722        1.552
      4.723        1.561
      4.729        1.569
      4.737        1.575
      4.746        1.576
      4.755        1.575
      4.763        1.569
      4.769        1.561
      4.77         1.552
      4.77         1.496
      4.769        1.487
      4.763        1.479
      4.755        1.473
      4.746        1.472
    P 19
      4.746        1.692
      4.737        1.693
      4.729        1.699
      4.723        1.707
      4.722        1.716
      4.722        1.772
      4.723        1.781
      4.729        1.789
      4.737        1.795
      4.746        1.796
      4.755        1.795
      4.763        1.789
      4.769        1.781
      4.77         1.772
      4.77         1.716
      4.769        1.707
      4.763        1.699
      4.755        1.693
      4.746        1.692
    P 28
      5.2215       2.19
      5.2215       2.1765
      5.3005       2.1765
      5.3005       2.163
      5.222        2.163
      5.213        2.167
      5.209        2.176
      5.209        2.178
      4.971        2.178
      4.964        2.179
      4.946        2.179
      4.946        2.223
      4.996        2.223
      4.996        2.222
      5.209        2.222
      5.209        2.229
      5.213        2.238
      5.222        2.242
      5.3005       2.242
      5.3005       2.2295
      5.2215       2.2295
      5.2215       2.21
      4.9835       2.21
      4.9835       2.211
      4.9585       2.211
      4.9585       2.191
      4.966653     2.191        4.970987     2.199891     0
      4.971        2.19
  E_CUTOUTS
P 2    3   10   0
  5.303        1.0005       5.303        1.003        0
  5.3055       1.003
  5.3055       2.299329     5.292274     2.303        0
  5.3055       2.306671
  5.3055       2.997        5.303        2.997        0
  5.303        2.9995
  1.004        2.9995       1.004        2.997        0
  1.0015       2.997
  1.0015       1.003        1.004        1.003        0
  1.004        1.0005
P 3    1   9    0
  1.1875       1.99
  1.2125       1.99
  1.2125       1.995
  1.273        1.995
  1.273        2.005
  1.2125       2.005
  1.2125       2.01
  1.1875       2.01
  1.1875       1.99
P 4    1   23   0
  1.281        2.092
  1.291        2.092
  1.291        2.18
  1.3          2.18
  1.3          2.21
  1.27         2.21
  1.27         2.199
  1.24         2.199
  1.24         2.2075
  1.245        2.2075
  1.245        2.2325
  1.225        2.2325
  1.225        2.2075
  1.23         2.2075
  1.23         2.1975
  1.225        2.1975
  1.225        2.1725
  1.245        2.1725
  1.245        2.189
  1.27         2.189
  1.27         2.18
  1.281        2.18
  1.281        2.092
P 5    1   203  0
  1.895641     2.499
  1.329        2.499        1.329        2.489        0
  1.319        2.489
  1.319        2.3
  1.3175       2.3
  1.3175       2.28
  1.326        2.28
  1.326        2.26
  1.3175       2.26
  1.3175       2.254
  1.3          2.254
  1.3          2.265
  1.27         2.265
  1.27         2.235
  1.3          2.235
  1.3          2.244
  1.3175       2.244
  1.3175       2.24
  1.3425       2.24
  1.3425       2.26
  1.336        2.26
  1.336        2.28
  1.3425       2.28
  1.3425       2.3
  1.339        2.3
  1.339        2.479
  1.89         2.479
  1.89         2.33
  1.8875       2.33
  1.8875       2.31
  1.894        2.31
  1.894        2.287
  1.8855       2.287
  1.8855       2.279
  1.853        2.279
  1.853        2.28
  1.823        2.28
  1.823        2.25
  1.853        2.25
  1.853        2.269
  1.8855       2.269
  1.8855       2.267
  1.9105       2.267
  1.9105       2.287
  1.904        2.287
  1.904        2.31
  1.9125       2.31
  1.9125       2.33
  1.91         2.33
  1.91         2.483738
  2.405        2.72403
  2.405        2.39
  2.4025       2.39
  2.4025       2.37
  2.41         2.37
  2.41         2.35
  2.4025       2.35
  2.4025       2.345
  2.376        2.345        2.376519     2.338335     0
  2.370928     2.342
  2.348        2.342
  2.348        2.312
  2.378        2.312
  2.378        2.334928
  2.378072     2.335
  2.4025       2.335
  2.4025       2.33
  2.4275       2.33
  2.4275       2.35
  2.42         2.35
  2.42         2.37
  2.4275       2.37
  2.4275       2.39
  2.425        2.39
  2.425        2.729986
  3.12         2.729014
  3.12         2.62
  3.11         2.62         3.110001     2.609999     0
  3.10134      2.615
  3.09         2.615
  3.09         2.625
  3.06         2.625
  3.06         2.615
  3.026        2.615
  3.026        2.624
  2.996        2.624
  2.996        2.615
  2.96         2.615
  2.96         2.625
  2.93         2.625
  2.93         2.615
  2.895        2.615
  2.895        2.625
  2.865        2.625
  2.865        2.615
  2.83         2.615
  2.83         2.625
  2.8          2.625
  2.8          2.595
  2.83         2.595
  2.83         2.605
  2.865        2.605
  2.865        2.595
  2.895        2.595
  2.895        2.605
  2.93         2.605
  2.93         2.595
  2.96         2.595
  2.96         2.605
  2.996        2.605
  2.996        2.594
  3.026        2.594
  3.026        2.605
  3.06         2.605
  3.06         2.595
  3.09         2.595
  3.09         2.605
  3.10134      2.605        3.110001     2.610001     0
  3.11         2.6
  3.12         2.6
  3.12         2.44
  3.1175       2.44
  3.1175       2.42
  3.126        2.42
  3.126        2.4
  3.1175       2.4
  3.1175       2.395
  3.109        2.395        3.109027     2.389932     0
  3.105534     2.393604
  3.091386     2.38
  3.068        2.38
  3.068        2.35
  3.098        2.35
  3.098        2.372486
  3.111014     2.385
  3.1175       2.385
  3.1175       2.38
  3.1425       2.38
  3.1425       2.4
  3.136        2.4
  3.136        2.42
  3.1425       2.42
  3.1425       2.44
  3.14         2.44
  3.14         2.729023
  3.561        2.729977
  3.561        2.415
  3.5575       2.415
  3.5575       2.395
  3.567        2.395
  3.567        2.375
  3.5575       2.375
  3.5575       2.37
  3.493        2.37
  3.493        2.34
  3.523        2.34
  3.523        2.36
  3.5575       2.36
  3.5575       2.355
  3.5825       2.355
  3.5825       2.375
  3.577        2.375
  3.577        2.395
  3.5825       2.395
  3.5825       2.415
  3.581        2.415
  3.581        2.73
  4.278        2.73
  4.278        2.465
  4.2765       2.465
  4.2765       2.445
  4.285        2.445
  4.285        2.425
  4.2765       2.425
  4.2765       2.42
  4.261        2.42         4.261037     2.414909     0
  4.257464     2.418536
  4.244928     2.406
  4.219        2.406
  4.219        2.376
  4.249        2.376
  4.249        2.395928
  4.263072     2.41
  4.2765       2.41
  4.2765       2.405
  4.3015       2.405
  4.3015       2.425
  4.295        2.425
  4.295        2.445
  4.3015       2.445
  4.3015       2.465
  4.298        2.465
  4.298        2.705031
  4.299        2.705
  4.867        2.705        4.867        2.725        0
  4.867        2.745
  4.299        2.745        4.29783      2.762436     1
  4.29666      2.745        4.287999     2.739999     0
  4.288        2.75
  3.570977     2.75
  3.129991     2.749
  2.415        2.75         2.415083     2.739639     0
  2.410633     2.748996
P 6    1   17   0
  1.321        2.092
  1.331        2.092
  1.331        2.145
  1.3425       2.145
  1.3425       2.165
  1.334        2.165
  1.334        2.185
  1.3425       2.185
  1.3425       2.205
  1.3175       2.205
  1.3175       2.185
  1.324        2.185
  1.324        2.165
  1.3175       2.165
  1.3175       2.145
  1.321        2.145
  1.321        2.092
P 7    1   17   0
  1.3525       1.815
  1.3775       1.815
  1.3775       1.835
  1.371        1.835
  1.371        1.85
  1.3775       1.85
  1.3775       1.87
  1.371        1.87
  1.371        1.927
  1.361        1.927
  1.361        1.87
  1.3525       1.87
  1.3525       1.85
  1.361        1.85
  1.361        1.835
  1.3525       1.835
  1.3525       1.815
P 8    1   25   0
  1.401        1.861        1.406091     1.861037     0
  1.402464     1.857464
  1.405        1.854928
  1.405        1.835
  1.435        1.835
  1.435        1.845
  1.4525       1.845
  1.4525       1.84
  1.46         1.84
  1.46         1.825
  1.4525       1.825
  1.4525       1.805
  1.4775       1.805
  1.4775       1.825
  1.47         1.825
  1.47         1.84
  1.4775       1.84
  1.4775       1.86
  1.4525       1.86
  1.4525       1.855
  1.435        1.855
  1.435        1.865
  1.411        1.865
  1.411        1.927
  1.401        1.927
P 9    1   52   0
  2.337        1.7205       2.337        1.727999     0
  2.342303     1.722697
  2.376106     1.7565
  2.47         1.7565
  2.47         1.745
  2.5          1.745
  2.5          1.775
  2.4915       1.775
  2.4915       1.795
  2.5175       1.795
  2.5175       1.79
  2.5425       1.79
  2.5425       1.81
  2.5175       1.81
  2.5175       1.805
  2.4915       1.805
  2.4915       1.8325
  2.5165       1.8325
  2.5165       1.83
  2.5415       1.83
  2.5415       1.85
  2.5165       1.85
  2.5165       1.8475
  2.4915       1.8475
  2.4915       1.85
  2.499        1.85
  2.499        1.88
  2.469        1.88
  2.469        1.85
  2.4765       1.85
  2.4765       1.775
  2.47         1.775
  2.47         1.7715
  2.373        1.7715       2.373        1.764001     0
  2.367697     1.769303
  2.333894     1.7355
  1.9875       1.7355
  1.9875       1.82
  1.995        1.82
  1.995        1.85
  1.965        1.85
  1.965        1.82
  1.9725       1.82
  1.9725       1.7355
  1.490106     1.7355
  1.435        1.790606
  1.435        1.81
  1.405        1.81
  1.405        1.78
  1.424394     1.78
  1.481697     1.722697     1.487        1.727999     0
  1.487        1.7205
P 10   1   9    0
  1.4875       2.03
  1.5125       2.03
  1.5125       2.05
  1.4875       2.05
  1.4875       2.045
  1.439        2.045
  1.439        2.035
  1.4875       2.035
  1.4875       2.03
P 11   1   13   0
  1.5375       2.03
  1.5625       2.03
  1.5625       2.035
  1.5875       2.035
  1.5875       2.03
  1.6125       2.03
  1.6125       2.05
  1.5875       2.05
  1.5875       2.045
  1.5625       2.045
  1.5625       2.05
  1.5375       2.05
  1.5375       2.03
P 12   1   29   0
  1.687        1.9825
  1.707        1.9825
  1.707        2.0075
  1.704        2.0075
  1.704        2.03
  1.7145       2.03
  1.7145       2.05
  1.708        2.05
  1.708        2.07
  1.7125       2.07
  1.7125       2.09
  1.6875       2.09
  1.6875       2.07
  1.698        2.07
  1.698        2.05
  1.6895       2.05
  1.6895       2.045
  1.6625       2.045
  1.6625       2.05
  1.6375       2.05
  1.6375       2.03
  1.6625       2.03
  1.6625       2.035
  1.6895       2.035
  1.6895       2.03
  1.694        2.03
  1.694        2.0075
  1.687        2.0075
  1.687        1.9825
P 13   1   25   0
  1.747        1.9825
  1.767        1.9825
  1.767        2.0075
  1.761        2.0075
  1.761        2.03
  1.7645       2.03
  1.7645       2.035
  1.838        2.035
  1.838        2.045
  1.7645       2.045
  1.7645       2.05
  1.757        2.05
  1.757        2.07
  1.7625       2.07
  1.7625       2.09
  1.7375       2.09
  1.7375       2.07
  1.747        2.07
  1.747        2.05
  1.7395       2.05
  1.7395       2.03
  1.751        2.03
  1.751        2.0075
  1.747        2.0075
  1.747        1.9825
P 14   1   22   0
  1.856        2.198        1.849335     2.197481     0
  1.853        2.203072
  1.853        2.225
  1.823        2.225
  1.823        2.215
  1.8025       2.215
  1.8025       2.235
  1.7775       2.235
  1.7775       2.215
  1.785        2.215
  1.785        2.195
  1.7775       2.195
  1.7775       2.175
  1.8025       2.175
  1.8025       2.195
  1.795        2.195
  1.795        2.205
  1.823        2.205
  1.823        2.195
  1.846        2.195
  1.846        2.132
  1.856        2.132
P 15   1   17   0
  1.88         1.8775
  1.9          1.8775
  1.9          1.884
  1.92         1.884
  1.92         1.8775
  1.94         1.8775
  1.94         1.9025
  1.936        1.9025
  1.936        1.967
  1.926        1.967
  1.926        1.9025
  1.92         1.9025
  1.92         1.894
  1.9          1.894
  1.9          1.9025
  1.88         1.9025
  1.88         1.8775
P 16   1   17   0
  1.886        2.132
  1.896        2.132
  1.896        2.183928
  1.897072     2.185
  1.9125       2.185
  1.9125       2.205
  1.905        2.205
  1.905        2.22
  1.9125       2.22
  1.9125       2.24
  1.8875       2.24
  1.8875       2.22
  1.895        2.22
  1.895        2.205
  1.8875       2.205
  1.8875       2.189572     1.89109      2.185963     0
  1.886        2.186
P 17   1   25   0
  2.0175       1.835
  2.0425       1.835
  2.0425       1.855
  2.035        1.855
  2.035        1.88
  2.0425       1.88
  2.0425       1.9
  2.0175       1.9
  2.0175       1.895
  1.995        1.895
  1.995        1.905
  1.976        1.905
  1.976        1.967
  1.966        1.967
  1.966        1.905
  1.965        1.905
  1.965        1.875
  1.995        1.875
  1.995        1.885
  2.0175       1.885
  2.0175       1.88
  2.025        1.88
  2.025        1.855
  2.0175       1.855
  2.0175       1.835
P 18   1   12   0
  2.171        2.07         2.171016     2.079911     0
  2.176986     2.072
  2.1935       2.072
  2.1935       2.092
  2.1685       2.092
  2.1685       2.09
  2.048        2.09         2.048001     2.079999     0
  2.03934      2.085
  2.004        2.085
  2.004        2.075
  2.03934      2.075        2.048001     2.080001     0
  2.048        2.07
P 19   1   8    0
  2.284        2.072        2.283999     2.082001     0
  2.29266      2.077
  2.341        2.077
  2.341        2.087
  2.29266      2.087        2.283999     2.081999     0
  2.284        2.092
  2.2185       2.092
  2.2185       2.072
P 20   1   25   0
  2.349        2.174
  2.359        2.174
  2.359        2.257
  2.378        2.257
  2.378        2.287
  2.348        2.287
  2.348        2.278
  2.328        2.278
  2.328        2.2845
  2.323        2.2845
  2.323        2.2995
  2.328        2.2995
  2.328        2.3245
  2.308        2.3245
  2.308        2.2995
  2.313        2.2995
  2.313        2.2845
  2.308        2.2845
  2.308        2.2595
  2.328        2.2595
  2.328        2.268
  2.348        2.268
  2.348        2.257
  2.349        2.257
  2.349        2.174
P 21   1   17   0
  2.388        1.9195
  2.408        1.9195
  2.408        1.927
  2.423        1.927
  2.423        1.9195
  2.443        1.9195
  2.443        1.9445
  2.439        1.9445
  2.439        2.009
  2.429        2.009
  2.429        1.9445
  2.423        1.9445
  2.423        1.937
  2.408        1.937
  2.408        1.9445
  2.388        1.9445
  2.388        1.9195
P 22   1   18   0
  2.389        2.174
  2.399        2.174
  2.399        2.223928
  2.412072     2.237
  2.4305       2.237
  2.4305       2.257
  2.423        2.257
  2.423        2.277
  2.4305       2.277
  2.4305       2.297
  2.4055       2.297
  2.4055       2.277
  2.413        2.277
  2.413        2.257
  2.4055       2.257
  2.4055       2.244572
  2.390464     2.229536     2.394011     2.225997     0
  2.389        2.226
P 23   1   38   0
  2.517        1.5805       2.517        1.573001     0
  2.511697     1.578303
  2.463697     1.530303     2.468999     1.525        0
  2.4615       1.525
  2.4615       1.36
  2.44         1.36
  2.44         1.31
  2.4615       1.31
  2.4615       1.275        2.468999     1.275        0
  2.463697     1.269697
  2.49         1.243394
  2.49         1.2
  2.55         1.2
  2.55         1.25
  2.504606     1.25
  2.4765       1.278106
  2.4765       1.31
  2.5          1.31
  2.5          1.36
  2.4765       1.36
  2.4765       1.521894
  2.520106     1.5655
  2.7335       1.5655
  2.7335       1.5315
  2.798894     1.5315
  2.816697     1.513697     2.822        1.518999     0
  2.822        1.5115
  2.9695       1.5115
  2.9695       1.5055
  3.0145       1.5055
  3.0145       1.5325
  2.9695       1.5325
  2.9695       1.5265
  2.825106     1.5265
  2.8125       1.539106
  2.8125       1.6105
  2.7335       1.6105
  2.7335       1.5805
P 24   1   21   0
  2.5215       1.885
  2.5465       1.885
  2.5465       1.905
  2.54         1.905
  2.54         1.92
  2.5475       1.92
  2.5475       1.94
  2.5225       1.94
  2.5225       1.926
  2.499        1.926
  2.499        1.935
  2.479        1.935
  2.479        2.009
  2.469        2.009
  2.469        1.905
  2.499        1.905
  2.499        1.916
  2.53         1.916
  2.53         1.905
  2.5215       1.905
  2.5215       1.885
P 25   1   29   0
  2.760303     1.710303     2.755        1.705001     0
  2.755        1.7125
  2.5          1.7125
  2.5          1.72
  2.47         1.72
  2.47         1.69
  2.5          1.69
  2.5          1.6975
  2.751894     1.6975
  2.898697     1.550697     2.904        1.555999     0
  2.904        1.5485
  2.9695       1.5485
  2.9695       1.5425
  3.0145       1.5425
  3.0145       1.551
  3.015928     1.551
  3.072428     1.4945
  3.0705       1.4945
  3.0705       1.4675
  3.1155       1.4675
  3.1155       1.4945
  3.086572     1.4945
  3.021536     1.559536     3.017997     1.555989     0
  3.018        1.561
  3.0145       1.561
  3.0145       1.5695
  2.9695       1.5695
  2.9695       1.5635
  2.907106     1.5635
P 26   1   9    0
  2.5625       2.11
  2.5875       2.11
  2.5875       2.13
  2.5625       2.13
  2.5625       2.127
  2.507        2.127
  2.507        2.117
  2.5625       2.117
  2.5625       2.11
P 27   1   83   0
  4.365        1.198        4.365003     1.217997     0
  4.3725       1.236536
  4.3725       1.681894
  4.427106     1.7365
  4.489        1.7365
  4.489        1.7315
  4.509        1.7315
  4.509        1.7365
  4.584        1.7365
  4.584        1.716        4.596        1.716        0
  4.608        1.716
  4.608        1.772        4.596        1.772        0
  4.584        1.772
  4.584        1.7515
  4.509        1.7515
  4.509        1.7565
  4.489        1.7565
  4.489        1.7515
  4.424        1.7515       4.424        1.744001     0
  4.418697     1.749303
  4.359697     1.690303     4.364999     1.685        0
  4.3575       1.685
  4.3575       1.238
  3.79         1.238        3.789976     1.218237     0
  3.7822       1.236406
  3.7          1.318606
  3.7          1.361
  3.65         1.361
  3.65         1.3405
  3.548        1.3405
  3.548        1.363
  3.488        1.363
  3.488        1.3395
  3.18         1.3395       3.18         1.332001     0
  3.174697     1.337303
  3.1685       1.331106
  3.1685       1.638        3.160999     1.637999     0
  3.161        1.6455
  2.914124     1.6455
  2.796536     1.764
  2.819        1.764
  2.819        1.866
  2.743        1.866
  2.743        1.764
  2.775663     1.764        2.78165      1.767686     0
  2.776676     1.762717
  2.905676     1.632717     2.911001     1.638004     0
  2.911        1.6305
  3.1535       1.6305
  3.1535       1.316106
  3.042894     1.2055
  2.724106     1.2055
  2.699303     1.230303     2.694        1.225001     0
  2.694        1.2325
  2.64         1.2325
  2.64         1.25
  2.6175       1.25
  2.6175       1.305
  2.625        1.305
  2.625        1.365
  2.565        1.365
  2.565        1.305
  2.6025       1.305
  2.6025       1.25
  2.58         1.25
  2.58         1.2
  2.64         1.2
  2.64         1.2175
  2.690894     1.2175
  2.715697     1.192697     2.721        1.197999     0
  2.721        1.1905
  3.041274     1.1905       3.045009     1.196979     0
  3.050303     1.191697
  3.183106     1.3245
  3.488        1.3245
  3.488        1.303
  3.548        1.303
  3.548        1.3255
  3.65         1.3255
  3.65         1.301
  3.696394     1.301
  3.771594     1.2258       3.789993     1.217989     0
  3.79         1.198
P 28   1   5    0
  2.6125       2.11
  2.6895       2.11
  2.6895       2.13
  2.6125       2.13
  2.6125       2.11
P 29   1   17   0
  2.73         2.295
  2.78         2.295
  2.78         2.3105
  2.781        2.3105
  2.781        2.4075
  2.677        2.4075
  2.677        2.36
  2.6675       2.36
  2.6675       2.34
  2.674        2.34
  2.674        2.32
  2.6675       2.32
  2.6675       2.3
  2.6925       2.3
  2.6925       2.3105
  2.73         2.3105
  2.73         2.295
P 30   1   31   0
  2.904        2.194
  2.904514     2.194029
  2.905        2.194
  2.945        2.194
  2.945        2.204
  2.90846      2.204        2.904013     2.200056     0
  2.904        2.206
  2.855486     2.206
  2.845        2.216486
  2.845        2.2325
  2.825        2.2325
  2.825        2.2265
  2.78         2.2265
  2.78         2.265
  2.73         2.265
  2.73         2.2425
  2.6975       2.2425
  2.6975       2.245
  2.6725       2.245
  2.6725       2.225
  2.6975       2.225
  2.6975       2.2275
  2.73         2.2275
  2.73         2.205
  2.78         2.205
  2.78         2.2115
  2.825        2.2115
  2.825        2.2075
  2.837014     2.2075
  2.848757     2.195757     2.853001     2.200003     0
  2.853        2.194
P 31   1   20   0
  2.96         1.2405       2.96         1.247999     0
  2.965303     1.242697
  2.987606     1.265
  3.005        1.265
  3.005        1.295
  2.975        1.295
  2.975        1.273606
  2.956894     1.2555
  2.767106     1.2555
  2.7355       1.287106
  2.7355       1.2955
  2.7575       1.2955
  2.7575       1.3745
  2.6945       1.3745
  2.6945       1.2955
  2.7205       1.2955
  2.7205       1.284        2.727999     1.284        0
  2.722697     1.278697
  2.758697     1.242697     2.764        1.247999     0
  2.764        1.2405
P 32   1   13   0
  2.744        2.0725
  2.764        2.0725
  2.764        2.0975
  2.76         2.0975
  2.76         2.11
  2.7895       2.11
  2.7895       2.13
  2.7145       2.13
  2.7145       2.11
  2.75         2.11
  2.75         2.0975
  2.744        2.0975
  2.744        2.0725
P 33   1   34   0
  2.828        2.428072
  2.828        2.435
  2.83         2.435
  2.83         2.465
  2.8          2.465
  2.8          2.455
  2.793072     2.455
  2.787        2.461072
  2.787        2.541928
  2.794072     2.549
  2.8          2.549
  2.8          2.54
  2.83         2.54
  2.83         2.57
  2.8          2.57
  2.8          2.559
  2.792        2.559        2.792037     2.553909     0
  2.788464     2.557536
  2.778464     2.547536     2.782091     2.543963     0
  2.777        2.544
  2.777        2.459        2.782091     2.459037     0
  2.778464     2.455464
  2.787464     2.446464     2.791001     2.450005     0
  2.791        2.445
  2.8          2.445
  2.8          2.435
  2.818        2.435
  2.818        2.426        2.823091     2.426037     0
  2.819464     2.422464
  2.953        2.288928
  2.953        2.217
  2.963        2.217
  2.963        2.291        2.957909     2.290963     0
  2.961536     2.294536
P 34   1   5    0
  2.799        2.477
  2.833        2.477
  2.833        2.528
  2.799        2.528
  2.799        2.477
P 35   1   12   0
  2.896        2.109        2.895999     2.119001     0
  2.90466      2.114
  2.945        2.114
  2.945        2.124
  2.90466      2.124        2.895999     2.118999     0
  2.896        2.129
  2.8395       2.129
  2.8395       2.13
  2.8145       2.13
  2.8145       2.11
  2.823653     2.11         2.827987     2.118891     0
  2.828        2.109
P 36   1   26   0
  2.888        2.406072
  2.888        2.435
  2.895        2.435
  2.895        2.465
  2.873072     2.465
  2.855        2.483072
  2.855        2.524928
  2.870072     2.54
  2.895        2.54
  2.895        2.57
  2.865        2.57
  2.865        2.549072
  2.846464     2.530536     2.850091     2.526963     0
  2.845        2.527
  2.845        2.481        2.850091     2.481037     0
  2.846464     2.477464
  2.865        2.458928
  2.865        2.435
  2.878        2.435
  2.878        2.404        2.883091     2.404037     0
  2.879464     2.400464
  2.973        2.306928
  2.973        2.217
  2.983        2.217
  2.983        2.309        2.977909     2.308963     0
  2.981536     2.312536
P 37   1   10   0
  2.879        2.477
  2.896        2.477
  2.896        2.528
  2.876        2.528
  2.867        2.52
  2.865        2.52
  2.865        2.49
  2.867        2.49
  2.867        2.488
  2.879        2.477
P 38   1   30   0
  3.003        2.338        2.997909     2.337963     0
  3.001536     2.341536
  2.949        2.394072
  2.949        2.433
  2.959        2.433
  2.959        2.463
  2.929        2.463
  2.929        2.453
  2.923072     2.453
  2.918        2.458072
  2.918        2.524928
  2.933072     2.54
  2.96         2.54
  2.96         2.57
  2.93         2.57
  2.93         2.551072
  2.909464     2.530536     2.913091     2.526963     0
  2.908        2.527
  2.908        2.456        2.913091     2.456037     0
  2.909464     2.452464
  2.917464     2.444464     2.921001     2.448005     0
  2.921        2.443
  2.929        2.443
  2.929        2.433
  2.939        2.433
  2.939        2.392        2.944091     2.392037     0
  2.940464     2.388464
  2.993        2.335928
  2.993        2.217
  3.003        2.217
P 39   1   10   0
  2.93         2.475
  2.962        2.475
  2.962        2.528
  2.939        2.528
  2.93         2.52
  2.93         2.518
  2.929        2.518
  2.929        2.488
  2.93         2.488
  2.93         2.475
P 40   1   21   0
  2.975        1.32
  3.005        1.32
  3.005        1.35
  2.9975       1.35
  2.9975       1.376
  3.007        1.376
  3.007        1.406
  2.9995       1.406
  2.9995       1.4675
  3.0145       1.4675
  3.0145       1.4945
  2.9695       1.4945
  2.9695       1.4675
  2.9845       1.4675
  2.9845       1.406
  2.977        1.406
  2.977        1.376
  2.9825       1.376
  2.9825       1.35
  2.975        1.35
  2.975        1.32
P 41   1   30   0
  3.023        2.38         3.017909     2.379963     0
  3.021536     2.383536
  3.016        2.389072
  3.016        2.433
  3.026        2.433
  3.026        2.463
  2.996        2.463
  2.996        2.453
  2.995072     2.453
  2.984        2.464072
  2.984        2.521928
  3.001072     2.539
  3.026        2.539
  3.026        2.569
  2.996        2.569
  2.996        2.548072
  2.975464     2.527536     2.979091     2.523963     0
  2.974        2.524
  2.974        2.462        2.979091     2.462037     0
  2.975464     2.458464
  2.989464     2.444464     2.993001     2.448005     0
  2.993        2.443
  2.996        2.443
  2.996        2.433
  3.006        2.433
  3.006        2.387        3.011091     2.387037     0
  3.007464     2.383464
  3.013        2.377928
  3.013        2.217
  3.023        2.217
P 42   1   7    0
  2.996        2.475
  3.028        2.475
  3.028        2.527
  3.007        2.527
  2.9971       2.518
  2.996        2.518
  2.996        2.475
P 43   1   29   0
  3.033        2.217
  3.043        2.217
  3.043        2.377928
  3.077536     2.412464     3.073909     2.416037     0
  3.079        2.416
  3.079        2.433
  3.09         2.433
  3.09         2.463
  3.06         2.463
  3.06         2.453
  3.05         2.453
  3.05         2.537928
  3.06         2.547928
  3.06         2.54
  3.09         2.54
  3.09         2.57
  3.06         2.57
  3.06         2.561579     3.061955     2.557047     0
  3.058464     2.560536
  3.041464     2.543536     3.045091     2.539963     0
  3.04         2.54
  3.04         2.448        3.044999     2.447999     0
  3.045        2.443
  3.06         2.443
  3.06         2.433
  3.069        2.433
  3.069        2.418072
  3.034464     2.383536     3.038091     2.379963     0
  3.033        2.38
P 44   1   31   0
  3.145        2.1875
  3.165        2.1875
  3.165        2.2125
  3.145        2.2125
  3.145        2.204
  3.132        2.204
  3.132        2.295
  3.1455       2.295
  3.1455       2.315
  3.137        2.315
  3.137        2.33
  3.1455       2.33
  3.1455       2.35
  3.1205       2.35
  3.1205       2.33
  3.127        2.33
  3.127        2.315
  3.098        2.315
  3.098        2.325
  3.068        2.325
  3.068        2.295
  3.098        2.295
  3.098        2.305
  3.1205       2.305
  3.1205       2.295
  3.122        2.295
  3.122        2.204
  3.071        2.204
  3.071        2.194
  3.145        2.194
  3.145        2.1875
P 45   1   12   0
  3.35         2.109        3.350013     2.118891     0
  3.354347     2.11
  3.3625       2.11
  3.3625       2.13
  3.3375       2.13
  3.3375       2.129
  3.113        2.129        3.113001     2.118999     0
  3.10434      2.124
  3.071        2.124
  3.071        2.114
  3.10434      2.114        3.113001     2.119001     0
  3.113        2.109
P 46   1   12   0
  3.467        2.1125       3.467009     2.119953     0
  3.472578     2.115
  3.506        2.115
  3.506        2.125
  3.472578     2.125        3.467009     2.120047     0
  3.467        2.1275
  3.4125       2.1275
  3.4125       2.13
  3.3875       2.13
  3.3875       2.11
  3.4125       2.11
  3.4125       2.1125
P 47   1   22   0
  3.524        2.289        3.518934     2.288969     0
  3.523        2.291991
  3.523        2.315
  3.493        2.315
  3.493        2.305
  3.463        2.305
  3.463        2.3125
  3.468        2.3125
  3.468        2.3375
  3.448        2.3375
  3.448        2.3125
  3.453        2.3125
  3.453        2.2975
  3.448        2.2975
  3.448        2.2725
  3.468        2.2725
  3.468        2.295
  3.493        2.295
  3.493        2.285
  3.514        2.285
  3.514        2.212
  3.524        2.212
P 48   1   17   0
  3.554        2.212
  3.564        2.212
  3.564        2.273928
  3.565072     2.275
  3.5805       2.275
  3.5805       2.295
  3.573        2.295
  3.573        2.31
  3.5805       2.31
  3.5805       2.33
  3.5555       2.33
  3.5555       2.31
  3.563        2.31
  3.563        2.295
  3.5555       2.295
  3.5555       2.279572     3.55909      2.275963     0
  3.554        2.276
P 49   1   17   0
  3.5855       1.925
  3.6105       1.925
  3.6105       1.945
  3.603        1.945
  3.603        1.965
  3.6105       1.965
  3.6105       1.985
  3.604        1.985
  3.604        2.047
  3.594        2.047
  3.594        1.985
  3.5855       1.985
  3.5855       1.965
  3.593        1.965
  3.593        1.945
  3.5855       1.945
  3.5855       1.925
P 50   1   27   0
  3.634        1.981        3.639091     1.981037     0
  3.635464     1.977464
  3.643        1.969928
  3.643        1.945
  3.673        1.945
  3.673        1.957
  3.6975       1.957
  3.6975       1.955
  3.705        1.955
  3.705        1.935
  3.6975       1.935
  3.6975       1.915
  3.7225       1.915
  3.7225       1.935
  3.715        1.935
  3.715        1.955
  3.7225       1.955
  3.7225       1.975
  3.6975       1.975
  3.6975       1.967572
  3.696928     1.967
  3.673        1.967
  3.673        1.975
  3.652072     1.975
  3.644        1.983072
  3.644        2.047
  3.634        2.047
P 51   1   27   0
  4.035        1.7985
  4.035        1.789
  4.065        1.789
  4.065        1.7965
  4.368        1.7965       4.367999     1.804001     0
  4.3755       1.804
  4.3755       1.936
  4.384        1.936
  4.384        1.966
  4.354        1.966
  4.354        1.936
  4.3605       1.936
  4.3605       1.8115
  4.065        1.8115
  4.065        1.819
  4.035        1.819
  4.035        1.8135
  3.6655       1.8135
  3.6655       1.89
  3.673        1.89
  3.673        1.92
  3.643        1.92
  3.643        1.89
  3.6505       1.89
  3.6505       1.812        3.658184     1.812065     0
  3.656644     1.804537     3.663999     1.805999     0
  3.664        1.7985
P 52   1   30   0
  3.9085       1.550572
  3.9085       1.6205
  3.8295       1.6205
  3.8295       1.6015
  3.7          1.6015
  3.7          1.624
  3.65         1.624
  3.65         1.564
  3.6675       1.564
  3.6675       1.451
  3.65         1.451
  3.65         1.391
  3.7          1.391
  3.7          1.451
  3.6825       1.451
  3.6825       1.564
  3.7          1.564
  3.7          1.5865
  3.8295       1.5865
  3.8295       1.5415
  3.903428     1.5415
  3.976464     1.468464     3.980037     1.472091     0
  3.98         1.467
  4.0275       1.467
  4.0275       1.4555
  4.0725       1.4555
  4.0725       1.4825
  4.0275       1.4825
  4.0275       1.477
  3.982072     1.477
P 53   1   12   0
  3.863        2.15         3.863013     2.159891     0
  3.867347     2.151
  3.8775       2.151
  3.8775       2.171
  3.8525       2.171
  3.8525       2.17
  3.719        2.17         3.719001     2.159999     0
  3.71034      2.165
  3.672        2.165
  3.672        2.155
  3.71034      2.155        3.719001     2.160001     0
  3.719        2.15
P 54   1   18   0
  3.965        1.269
  3.965        1.264
  3.995        1.264
  3.995        1.294
  3.965        1.294
  3.965        1.279
  3.851072     1.279
  3.827        1.303072
  3.827        1.3055
  3.8535       1.3055
  3.8535       1.3845
  3.7905       1.3845
  3.7905       1.3055
  3.817        1.3055
  3.817        1.301        3.822091     1.301037     0
  3.818464     1.297464
  3.845464     1.270464     3.849037     1.274091     0
  3.849        1.269
P 55   1   9    0
  3.925        2.1085
  3.945        2.1085
  3.945        2.151
  3.9725       2.151
  3.9725       2.171
  3.9025       2.171
  3.9025       2.151
  3.925        2.151
  3.925        2.1085
P 56   1   5    0
  3.9975       2.151
  4.0975       2.151
  4.0975       2.171
  3.9975       2.171
  3.9975       2.151
P 57   1   21   0
  4.055        1.4175
  4.0725       1.4175
  4.0725       1.4445
  4.0275       1.4445
  4.0275       1.4175
  4.045        1.4175
  4.045        1.364
  4.035        1.364
  4.035        1.345072
  4.031464     1.341536     4.035091     1.337963     0
  4.03         1.338
  4.03         1.294
  4.02         1.294
  4.02         1.264
  4.05         1.264
  4.05         1.294
  4.04         1.294
  4.04         1.334
  4.065        1.334
  4.065        1.364
  4.055        1.364
P 58   1   23   0
  4.0575       1.734
  4.065        1.734
  4.065        1.764
  4.035        1.764
  4.035        1.734
  4.0425       1.734
  4.0425       1.5195
  4.0275       1.5195
  4.0275       1.4925
  4.0725       1.4925
  4.0725       1.5
  4.075928     1.5
  4.131428     1.4445
  4.1285       1.4445
  4.1285       1.4175
  4.1735       1.4175
  4.1735       1.4445
  4.145572     1.4445
  4.081536     1.508536     4.077997     1.504989     0
  4.078        1.51
  4.0725       1.51
  4.0725       1.5195
  4.0575       1.5195
P 59   1   12   0
  4.183        2.1535       4.183009     2.160953     0
  4.188578     2.156
  4.222        2.156
  4.222        2.166
  4.188578     2.166        4.183009     2.161047     0
  4.183        2.1685
  4.1475       2.1685
  4.1475       2.171
  4.1225       2.171
  4.1225       2.151
  4.1475       2.151
  4.1475       2.1535
P 60   1   25   0
  4.23         2.253
  4.24         2.253
  4.24         2.321
  4.249        2.321
  4.249        2.351
  4.219        2.351
  4.219        2.34
  4.1965       2.34
  4.1965       2.346
  4.189        2.346
  4.189        2.366
  4.1965       2.366
  4.1965       2.386
  4.1715       2.386
  4.1715       2.366
  4.179        2.366
  4.179        2.346
  4.1715       2.346
  4.1715       2.326
  4.1965       2.326
  4.1965       2.33
  4.219        2.33
  4.219        2.321
  4.23         2.321
  4.23         2.253
P 61   1   18   0
  4.27         2.253
  4.28         2.253
  4.28         2.310928
  4.285072     2.316
  4.3015       2.316
  4.3015       2.336
  4.294        2.336
  4.294        2.355
  4.3015       2.355
  4.3015       2.375
  4.2765       2.375
  4.2765       2.355
  4.284        2.355
  4.284        2.336
  4.2765       2.336
  4.2765       2.321572
  4.271464     2.316536     4.275091     2.312963     0
  4.27         2.313
P 62   1   17   0
  4.2965       1.971
  4.3215       1.971
  4.3215       1.991
  4.314        1.991
  4.314        2.006
  4.3215       2.006
  4.3215       2.026
  4.32         2.026
  4.32         2.088
  4.31         2.088
  4.31         2.026
  4.2965       2.026
  4.2965       2.006
  4.304        2.006
  4.304        1.991
  4.2965       1.991
  4.2965       1.971
P 63   1   24   0
  4.35         2.02         4.355091     2.020037     0
  4.351464     2.016464
  4.354        2.013928
  4.354        1.991
  4.384        1.991
  4.384        2.001
  4.42         2.001
  4.42         1.991
  4.4115       1.991
  4.4115       1.971
  4.4365       1.971
  4.4365       1.991
  4.43         1.991
  4.43         2.006
  4.4365       2.006
  4.4365       2.026
  4.4115       2.026
  4.4115       2.011
  4.384        2.011
  4.384        2.021
  4.361072     2.021
  4.36         2.022072
  4.36         2.088
  4.35         2.088
P 64   1   9    0
  4.4415       2.191
  4.4665       2.191
  4.4665       2.211
  4.4415       2.211
  4.4415       2.206
  4.388        2.206
  4.388        2.196
  4.4415       2.196
  4.4415       2.191
P 65   1   5    0
  4.429        1.434
  4.459        1.434
  4.459        1.464
  4.429        1.464
  4.429        1.434
P 66   1   34   0
  4.521        1.605
  4.521        1.614
  4.491        1.614
  4.491        1.604
  4.461        1.604
  4.461        1.614
  4.431        1.614
  4.431        1.584
  4.44         1.584
  4.44         1.519
  4.429        1.519
  4.429        1.489
  4.459        1.489
  4.459        1.519
  4.45         1.519
  4.45         1.584
  4.461        1.584
  4.461        1.594
  4.491        1.594
  4.491        1.584
  4.521        1.584
  4.521        1.595
  4.613928     1.595
  4.639        1.569928
  4.639        1.561743     4.645986     1.552003     0
  4.634        1.552
  4.634        1.496        4.646        1.496        0
  4.658        1.496
  4.658        1.552        4.646014     1.552004     0
  4.649        1.563612     4.597926     1.567806     0
  4.648918     1.572901     4.643993     1.571998     0
  4.647536     1.575536
  4.619536     1.603536     4.615997     1.599989     0
  4.616        1.605
P 67   1   34   0
  4.661        1.651        4.660963     1.656091     0
  4.664536     1.652464
  4.698536     1.686464     4.694909     1.690037     0
  4.7          1.69
  4.7          1.704695     4.696021     1.715994     0
  4.708        1.716
  4.708        1.772        4.696028     1.772009     0
  4.701        1.782899
  4.701        1.834
  4.71         1.834
  4.71         1.864
  4.68         1.864
  4.68         1.834
  4.691        1.834
  4.691        1.782899     4.695972     1.772009     0
  4.684        1.772
  4.684        1.716        4.695967     1.71599      0
  4.69         1.705617
  4.69         1.692072
  4.658928     1.661
  4.521        1.661
  4.521        1.669
  4.491        1.669
  4.491        1.661
  4.461        1.661
  4.461        1.669
  4.431        1.669
  4.431        1.639
  4.461        1.639
  4.461        1.651
  4.491        1.651
  4.491        1.639
  4.521        1.639
  4.521        1.651
P 68   1   12   0
  4.711        2.19
  4.711        2.1675
  4.739        2.1675
  4.739        2.2465
  4.711        2.2465
  4.711        2.21
  4.5165       2.21
  4.5165       2.211
  4.4915       2.211
  4.4915       2.191
  4.504653     2.191        4.508987     2.199891     0
  4.509        2.19
P 69   1   31   0
  4.584        1.197
  4.63         1.197
  4.63         1.255
  4.65         1.255
  4.65         1.245
  4.68         1.245
  4.68         1.275
  4.65         1.275
  4.65         1.265
  4.63         1.265
  4.63         1.345
  4.613        1.345
  4.613        1.435
  4.686        1.435
  4.686        1.4275
  4.706        1.4275
  4.706        1.4525
  4.701        1.4525
  4.701        1.485101     4.696028     1.495991     0
  4.708        1.496
  4.708        1.552        4.696        1.552        0
  4.684        1.552
  4.684        1.496        4.695972     1.495991     0
  4.691        1.485101
  4.691        1.4525
  4.686        1.4525
  4.686        1.445
  4.608        1.445        4.607999     1.440001     0
  4.603        1.44
  4.603        1.345
  4.584        1.345
P 70   1   4    0
  4.608        1.552        4.596        1.552        0
  4.584        1.552
  4.584        1.496        4.596        1.496        0
  4.608        1.496
P 71   1   5    0
  4.68         1.889
  4.71         1.889
  4.71         1.919
  4.68         1.919
  4.68         1.889
P 72   1   4    0
  4.758        1.552        4.746        1.552        0
  4.734        1.552
  4.734        1.496        4.746        1.496        0
  4.758        1.496
P 73   1   4    0
  4.758        1.772        4.746        1.772        0
  4.734        1.772
  4.734        1.716        4.746        1.716        0
  4.758        1.716
P 74   1   9    0
  4.763        2.1645
  4.791        2.1645
  4.791        2.191
  4.9335       2.191
  4.9335       2.211
  4.791        2.211
  4.791        2.2455
  4.763        2.2455
  4.763        2.1645
E_GEOMETRY
