
Terminating impedances in Ohms.
 No. 1 port: Zc = (200.000,   0.000)
 No. 2 port: Zc = (100.000,   0.000)

dB(Sij) in dB and Ang(Sij) in degree.

                                       

Freq[GHz]    dB[S(1,1)]   dB[S(2,1)]   

0.2          -10.24       -0.6758      
0.22         -10.27       -0.6753      
0.24         -10.3        -0.6734      
0.26         -10.33       -0.6708      
0.28         -10.36       -0.6679      
0.3          -10.39       -0.6653      
0.32         -10.42       -0.6629      
0.34         -10.45       -0.6611      
0.36         -10.47       -0.6598      
0.38         -10.49       -0.659       
0.4          -10.51       -0.6587      
0.42         -10.52       -0.6588      
0.44         -10.53       -0.6593      
0.46         -10.54       -0.66        
0.48         -10.55       -0.661       
0.5          -10.55       -0.6621      
0.52         -10.56       -0.6632      
0.54         -10.56       -0.6645      
0.56         -10.57       -0.6658      
0.58         -10.58       -0.6673      
0.6          -10.59       -0.6691      
0.62         -10.6        -0.6711      
0.64         -10.63       -0.6735      
0.66         -10.65       -0.6763      
0.68         -10.69       -0.6793      
0.7          -10.73       -0.6829      
0.72         -10.78       -0.6874      
0.74         -10.84       -0.6934      
0.76         -10.92       -0.7019      
0.78         -11.01       -0.7142      
0.8          -11.12       -0.7319      
0.82         -11.26       -0.7578      
0.84         -11.43       -0.7956      
0.86         -11.66       -0.851       
0.88         -11.96       -0.9325      
0.9          -12.41       -1.052       
0.92         -13.08       -1.225       
0.94         -14.19       -1.457       
0.96         -16.1        -1.715       
0.98         -19.46       -1.896       
1.           -25.84       -1.881       
1.02         -41.41       -1.687       
1.04         -28.03       -1.432       
1.06         -23.65       -1.202       
1.08         -21.7        -1.021       
1.1          -20.73       -0.8845      
1.12         -20.27       -0.7809      
1.14         -20.12       -0.7013      
1.16         -20.18       -0.6388      
1.18         -20.37       -0.5887      
1.2          -20.68       -0.5477      
1.22         -21.08       -0.5136      
1.24         -21.55       -0.4849      
1.26         -22.08       -0.4604      
1.28         -22.68       -0.4394      
1.3          -23.33       -0.4212      
1.32         -24.04       -0.4054      
1.34         -24.8        -0.3917      
1.36         -25.61       -0.3798      
1.38         -26.47       -0.3693      
1.4          -27.38       -0.3602      
1.42         -28.33       -0.3523      
1.44         -29.34       -0.3453      
1.46         -30.39       -0.3391      
1.48         -31.5        -0.3336      
1.5          -32.66       -0.3287      
1.52         -33.9        -0.3244      
1.54         -35.22       -0.3206      
1.56         -36.67       -0.3173      
1.58         -38.29       -0.3143      
1.6          -40.15       -0.3116      
1.62         -42.36       -0.3092      
1.64         -45.03       -0.3071      
1.66         -47.83       -0.3051      
1.68         -48.67       -0.3034      
1.7          -46.27       -0.3019      
1.72         -43.19       -0.3005      
1.74         -40.54       -0.2993      
1.76         -38.36       -0.2983      
1.78         -36.52       -0.2976      
1.8          -34.96       -0.297       
1.82         -33.59       -0.2966      
1.84         -32.4        -0.2964      
1.86         -31.34       -0.2964      
1.88         -30.39       -0.2967      
1.9          -29.55       -0.2972      
1.92         -28.8        -0.2979      
1.94         -28.13       -0.2988      
1.96         -27.53       -0.2999      
1.98         -27.         -0.3013      
2.           -26.54       -0.3029      
2.02         -26.14       -0.3048      
2.04         -25.79       -0.3071      
2.06         -25.5        -0.3098      
2.08         -25.27       -0.3131      
2.1          -25.08       -0.3173      
2.12         -24.94       -0.3227      
2.14         -24.84       -0.3297      
2.16         -24.76       -0.3389      
2.18         -24.7        -0.351       
2.2          -24.62       -0.3665      
2.22         -24.5        -0.3857      
2.24         -24.31       -0.4081      
2.26         -24.07       -0.431       
2.28         -23.81       -0.4503      
2.3          -23.61       -0.4615      
2.32         -23.53       -0.4627      
2.34         -23.59       -0.4557      
2.36         -23.78       -0.4438      
2.38         -24.08       -0.4301      
2.4          -24.47       -0.4165      
2.42         -24.92       -0.404       
2.44         -25.42       -0.3929      
2.46         -25.95       -0.3832      
2.48         -26.51       -0.3748      
2.5          -27.06       -0.3677      
2.52         -27.59       -0.3616      
2.54         -28.06       -0.3565      
2.56         -28.44       -0.3522      
2.58         -28.7        -0.3487      
2.6          -28.81       -0.3459      
2.62         -28.77       -0.3438      
2.64         -28.59       -0.3422      
2.66         -28.3        -0.3411      
2.68         -27.94       -0.3405      
2.7          -27.53       -0.3403      
2.72         -27.1        -0.3404      
2.74         -26.69       -0.3409      
2.76         -26.3        -0.3416      
2.78         -25.94       -0.3426      
2.8          -25.62       -0.3437      
2.82         -25.34       -0.3449      
2.84         -25.11       -0.3463      
2.86         -24.93       -0.3477      
2.88         -24.8        -0.3493      
2.9          -24.72       -0.351       
2.92         -24.68       -0.3528      
2.94         -24.7        -0.3547      
2.96         -24.77       -0.3569      
2.98         -24.89       -0.3592      
3.           -25.07       -0.3619      
3.02         -25.3        -0.3649      
3.04         -25.59       -0.3683      
3.06         -25.95       -0.3723      
3.08         -26.37       -0.377       
3.1          -26.86       -0.3826      
3.12         -27.43       -0.3893      
3.14         -28.08       -0.3974      
3.16         -28.84       -0.4072      
3.18         -29.72       -0.4189      
3.2          -30.75       -0.4331      
3.22         -31.99       -0.45        
3.24         -33.51       -0.47        
3.26         -35.47       -0.4931      
3.28         -38.07       -0.5192      
3.3          -41.2        -0.5469      
3.32         -41.57       -0.574       
3.34         -37.58       -0.5964      
3.36         -33.63       -0.6095      
3.38         -30.57       -0.6096      
3.4          -28.22       -0.5956      
3.42         -26.42       -0.5706      
3.44         -25.02       -0.5398      
3.46         -23.93       -0.508       
3.48         -23.06       -0.4788      
3.5          -22.36       -0.4537      
3.52         -21.79       -0.4332      
3.54         -21.31       -0.4167      
3.56         -20.9        -0.4038      
3.58         -20.56       -0.3938      
3.6          -20.27       -0.386       
3.62         -20.02       -0.38        
3.64         -19.81       -0.3753      
3.66         -19.63       -0.3716      
3.68         -19.48       -0.3687      
3.7          -19.37       -0.3663      
3.72         -19.28       -0.3643      
3.74         -19.21       -0.3626      
3.76         -19.17       -0.3611      
3.78         -19.15       -0.3597      
3.8          -19.15       -0.3584      
3.82         -19.17       -0.3571      
3.84         -19.21       -0.3558      
3.86         -19.26       -0.3545      
3.88         -19.33       -0.3531      
3.9          -19.42       -0.3519      
3.92         -19.52       -0.3506      
3.94         -19.62       -0.3493      
3.96         -19.74       -0.3481      
3.98         -19.87       -0.347       
4.           -20.         -0.3459      
4.02         -20.14       -0.345       
4.04         -20.29       -0.3442      
4.06         -20.44       -0.3435      
4.08         -20.59       -0.3431      
4.1          -20.74       -0.3429      
4.12         -20.89       -0.3429      
4.14         -21.04       -0.3432      
4.16         -21.18       -0.3439      
4.18         -21.33       -0.345       
4.2          -21.48       -0.3466      
4.22         -21.63       -0.3489      
4.24         -21.78       -0.3519      
4.26         -21.93       -0.3561      
4.28         -22.08       -0.3616      
4.3          -22.25       -0.369       
4.32         -22.42       -0.3789      
4.34         -22.61       -0.3923      
4.36         -22.84       -0.4103      
4.38         -23.13       -0.434       
4.4          -23.53       -0.4637      
4.42         -24.1        -0.4968      
4.44         -24.93       -0.5249      
4.46         -26.06       -0.5353      
4.48         -27.37       -0.5213      
4.5          -28.62       -0.49        
4.52         -29.62       -0.4543      
4.54         -30.35       -0.4224      
4.56         -30.92       -0.397       
4.58         -31.43       -0.3775      
4.6          -31.93       -0.3628      
4.62         -32.42       -0.3516      
4.64         -32.88       -0.3431      
4.66         -33.28       -0.3366      
4.68         -33.56       -0.3316      
4.7          -33.67       -0.3276      
4.72         -33.59       -0.3246      
4.74         -33.3        -0.3223      
4.76         -32.84       -0.3206      
4.78         -32.27       -0.3193      
4.8          -31.62       -0.3185      
4.82         -30.95       -0.318       
4.84         -30.28       -0.3178      
4.86         -29.63       -0.3178      
4.88         -29.02       -0.3181      
4.9          -28.44       -0.3185      
4.92         -27.9        -0.3191      
4.94         -27.4        -0.3199      
4.96         -26.94       -0.3208      
4.98         -26.52       -0.3217      
5.           -26.13       -0.3228      
5.02         -25.77       -0.324       
5.04         -25.44       -0.3252      
5.06         -25.14       -0.3265      
5.08         -24.85       -0.3279      
5.1          -24.59       -0.3293      
5.12         -24.35       -0.3309      
5.14         -24.12       -0.3325      
5.16         -23.9        -0.3343      
5.18         -23.69       -0.3362      
5.2          -23.49       -0.3382      
5.22         -23.3        -0.3404      
5.24         -23.11       -0.3429      
5.26         -22.93       -0.3456      
5.28         -22.75       -0.3486      
5.3          -22.57       -0.352       
5.32         -22.39       -0.356       
5.34         -22.22       -0.3607      
5.36         -22.04       -0.3662      
5.38         -21.87       -0.373       
5.4          -21.69       -0.3814      
5.42         -21.5        -0.3923      
5.44         -21.29       -0.4069      
5.46         -21.06       -0.4271      
5.48         -20.77       -0.4564      
5.5          -20.38       -0.5004      
5.52         -19.83       -0.5676      
5.54         -19.09       -0.6633      
5.56         -18.3        -0.7589      
5.58         -17.88       -0.7655      
5.6          4.438        14.87        
5.62         -18.52       -0.5558      
5.64         -18.98       -0.4803      
5.66         -19.37       -0.4341      
5.68         -19.68       -0.4057      
5.7          -19.94       -0.3875      
5.72         -20.18       -0.3753      
5.74         -20.41       -0.3667      
5.76         -20.64       -0.3602      
5.78         -20.88       -0.3551      
5.8          -21.14       -0.3509      
5.82         -21.42       -0.3472      
5.84         -21.72       -0.3439      
5.86         -22.05       -0.3408      
5.88         -22.42       -0.3379      
5.9          -22.82       -0.3351      
5.92         -23.25       -0.3326      
5.94         -23.73       -0.3302      
5.96         -24.25       -0.3279      
5.98         -24.82       -0.3258      
6.           -25.44       -0.3238      
6.02         -26.11       -0.322       
6.04         -26.85       -0.3203      
6.06         -27.64       -0.3189      
6.08         -28.49       -0.3176      
6.1          -29.41       -0.3166      
6.12         -30.36       -0.3158      
6.14         -31.33       -0.3151      
6.16         -32.26       -0.3148      
6.18         -33.05       -0.3146      
6.2          -33.58       -0.3147      
6.22         -33.77       -0.315       
6.24         -33.56       -0.3155      
6.26         -33.05       -0.3162      
6.28         -32.34       -0.3172      
6.3          -31.53       -0.3185      
6.32         -30.71       -0.3199      
6.34         -29.9        -0.3217      
6.36         -29.14       -0.3237      
6.38         -28.43       -0.326       
6.4          -27.77       -0.3287      
6.42         -27.14       -0.3318      
6.44         -26.56       -0.3355      
6.46         -26.         -0.3399      
6.48         -25.46       -0.3454      
6.5          -24.94       -0.3525      
6.52         -24.41       -0.3619      
6.54         -23.87       -0.3754      
6.56         -23.28       -0.3959      
6.58         -22.63       -0.4298      
6.6          -21.9        -0.4906      
6.62         -21.14       -0.6069      
6.64         -20.83       -0.7961      
6.66         -22.5        -0.845       
6.68         -25.7        -0.6354      
6.7          -26.9        -0.4818      
6.72         -26.45       -0.4101      
6.74         -25.73       -0.3764      
6.76         -25.1        -0.3594      
6.78         -24.58       -0.3504      
6.8          -24.16       -0.3455      
6.82         -23.81       -0.3428      
6.84         -23.52       -0.3414      
6.86         -23.27       -0.3407      
6.88         -23.07       -0.3406      
6.9          -22.9        -0.3407      
6.92         -22.76       -0.3409      
6.94         -22.66       -0.3412      
6.96         -22.59       -0.3415      
6.98         -22.55       -0.3417      
7.           -22.53       -0.3419      
7.02         -22.55       -0.3419      
7.04         -22.6        -0.3418      
7.06         -22.68       -0.3416      
7.08         -22.8        -0.3413      
7.1          -22.95       -0.3408      
7.12         -23.13       -0.3402      
7.14         -23.34       -0.3395      
7.16         -23.6        -0.3386      
7.18         -23.89       -0.3377      
7.2          -24.23       -0.3367      
7.22         -24.6        -0.3357      
7.24         -25.02       -0.3346      
7.26         -25.48       -0.3335      
7.28         -26.         -0.3325      
7.3          -26.55       -0.3316      
7.32         -27.15       -0.3307      
7.34         -27.8        -0.33        
7.36         -28.48       -0.3295      
7.38         -29.18       -0.3291      
7.4          -29.89       -0.3289      
7.42         -30.57       -0.329       
7.44         -31.19       -0.3294      
7.46         -31.7        -0.3301      
7.48         -32.06       -0.3311      
7.5          -32.24       -0.3326      
7.52         -32.25       -0.3346      
7.54         -32.13       -0.3372      
7.56         -31.94       -0.3408      
7.58         -31.73       -0.3456      
7.6          -31.6        -0.3524      
7.62         -31.62       -0.3626      
7.64         -31.95       -0.3793      
7.66         -32.92       -0.4103      
7.68         -35.38       -0.4811      
7.7          -34.63       -0.7047      
7.72         -22.37       -1.482       
7.74         -20.33       -0.8341      
7.76         -21.88       -0.4632      
7.78         -22.82       -0.3794      
7.8          -23.36       -0.3519      
7.82         -23.71       -0.3406      
7.84         -23.96       -0.3351      
7.86         -24.15       -0.3323      
7.88         -24.3        -0.3308      
7.9          -24.44       -0.3299      
7.92         -24.56       -0.3293      
7.94         -24.66       -0.329       
7.96         -24.75       -0.3288      
7.98         -24.82       -0.3288      
8.           -24.86       -0.3288      
8.02         -24.87       -0.329       
8.04         -24.86       -0.3293      
8.06         -24.81       -0.3297      
8.08         -24.72       -0.3303      
8.1          -24.61       -0.3311      
8.12         -24.47       -0.332       
8.14         -24.31       -0.333       
8.16         -24.13       -0.334       
8.18         -23.95       -0.3352      
8.2          -23.76       -0.3363      
8.22         -23.57       -0.3375      
8.24         -23.39       -0.3387      
8.26         -23.23       -0.3399      
8.28         -23.08       -0.341       
8.3          -22.95       -0.342       
8.32         -22.84       -0.343       
8.34         -22.77       -0.3438      
8.36         -22.72       -0.3444      
8.38         -22.71       -0.3449      
8.4          -22.73       -0.3453      
8.42         -22.8        -0.3454      
8.44         -22.9        -0.3453      
8.46         -23.06       -0.345       
8.48         -23.25       -0.3445      
8.5          -23.5        -0.3438      
8.52         -23.81       -0.3429      
8.54         -24.18       -0.3419      
8.56         -24.61       -0.3409      
8.58         -25.11       -0.3398      
8.6          -25.69       -0.3387      
8.62         -26.35       -0.3379      
8.64         -27.09       -0.3374      
8.66         -27.89       -0.3376      
8.68         -28.72       -0.339       
8.7          -29.42       -0.3426      
8.72         -29.64       -0.3512      
8.74         -28.54       -0.3738      
8.76         -24.31       -0.4639      
8.78         -10.91       0.1516       
8.8          -26.21       -0.3838      
8.82         -31.6        -0.3242      
8.84         -32.69       -0.3163      
8.86         -31.81       -0.3153      
8.88         -30.47       -0.3161      
8.9          -29.17       -0.3175      
8.92         -28.03       -0.3192      
8.94         -27.04       -0.321       
8.96         -26.18       -0.323       
8.98         -25.45       -0.3249      
9.           -24.83       -0.3268      
9.02         -24.3        -0.3287      
9.04         -23.86       -0.3304      
9.06         -23.5        -0.3319      
9.08         -23.21       -0.3331      
9.1          -23.         -0.3341      
9.12         -22.85       -0.3348      
9.14         -22.76       -0.3351      
9.16         -22.74       -0.3351      
9.18         -22.78       -0.3348      
9.2          -22.88       -0.3342      
9.22         -23.05       -0.3333      
9.24         -23.28       -0.3323      
9.26         -23.57       -0.3311      
9.28         -23.93       -0.3299      
9.3          -24.34       -0.3286      
9.32         -24.82       -0.3274      
9.34         -25.36       -0.3263      
9.36         -25.95       -0.3252      
9.38         -26.56       -0.324       
9.4          -27.19       -0.3225      
9.42         -27.79       -0.3205      
9.44         -28.31       -0.3177      
9.46         -28.66       -0.314       
9.48         -28.75       -0.3095      
9.5          -28.5        -0.3048      
9.52         -27.89       -0.3009      
9.54         -27.         -0.2989      
9.56         -25.95       -0.2998      
9.58         -24.86       -0.3043      
9.6          -23.82       -0.3126      
9.62         -22.86       -0.3244      
9.64         -22.01       -0.3389      
9.66         -21.26       -0.3555      
9.68         -20.61       -0.3736      
9.7          -20.04       -0.3927      
9.72         -19.56       -0.4129      
9.74         -19.15       -0.4346      
9.76         -18.81       -0.4588      
9.78         -18.54       -0.4875      
9.8          -18.34       -0.5252      
9.82         -18.24       -0.5817      
9.84         -18.3        -0.6828      
9.86         -18.77       -0.9024      
9.88         -19.61       -1.117       
9.9          -17.89       -0.4953      
9.92         -17.39       -0.3347      
9.94         -17.36       -0.3253      
9.96         -17.44       -0.3337      
9.98         -17.58       -0.342       
10.          -17.76       -0.3478      
10.02        -18.         -0.3509      
10.04        -18.28       -0.3516      
10.06        -18.61       -0.3501      
10.08        -19.01       -0.3469      
10.1         -19.46       -0.3422      
10.12        -19.99       -0.3364      
10.14        -20.6        -0.3298      
10.16        -21.29       -0.3228      
10.18        -22.08       -0.3159      
10.2         -22.98       -0.3091      
10.22        -24.         -0.3028      
10.24        -25.15       -0.2968      
10.26        -26.46       -0.291       
10.28        -27.95       -0.2854      
10.3         -29.66       -0.2801      
10.32        -31.6        -0.2753      
10.34        -33.65       -0.2713      
10.36        -35.34       -0.2684      
10.38        -35.71       -0.2666      
10.4         -34.57       -0.2662      
10.42        -32.84       -0.2669      
10.44        -31.16       -0.2685      
10.46        -29.72       -0.2709      
10.48        -28.52       -0.2737      
10.5         -27.54       -0.2766      
10.52        -26.75       -0.2795      
10.54        -26.12       -0.2819      
10.56        -25.62       -0.2839      
10.58        -25.26       -0.2852      
10.6         -25.         -0.2856      
10.62        -24.85       -0.2852      
10.64        -24.81       -0.284       
10.66        -24.87       -0.2819      
10.68        -25.02       -0.2792      
10.7         -25.28       -0.2761      
10.72        -25.62       -0.2729      
10.74        -26.03       -0.2704      
10.76        -26.47       -0.2698      
10.78        -26.79       -0.2733      
10.8         -26.61       -0.287       
10.82        -25.05       -0.3334      
10.84        -20.43       -0.5652      
10.86        -16.94       -1.243       
10.88        -24.36       -0.4329      
10.9         -29.54       -0.3051      
10.92        -33.15       -0.2783      
10.94        -34.25       -0.2709      
10.96        -32.44       -0.2685      
10.98        -29.72       -0.2674      
11.          -27.13       -0.2661      
