Trace
Swept SA
A.16.17,N9010A
526 FS1 ,01
Segment,0
Number of Points,1001
Sweep Time,656.175767597013
Start Frequency,300000000
Stop Frequency,6000000000
Average Count,1
Average Type,LogPower(Video)
RBW,100
RBW Filter,Gaussian
RBW Filter BW,3dB
VBW,1000
Sweep Type,Fft
X Axis Scale,Lin
PreAmp State,Off
PreAmp Band,Low
Trigger Source,Free
Trigger Level,1.2
Trigger Slope,Positive
Trigger Delay,0
Phase Noise Optimization,Fast
Swept If Gain,High
FFT If Gain,Autorange
RF Coupling,AC
FFT Width,411900
Ext Ref,10000000
Input,RF
RF Calibrator,Off
Attenuation,0
Ref Level Offset,0
External Gain,0
Trace Type,Maxhold
Detector,Peak
Trace Math,Off
Trace Math Oper1,Trace5
Trace Math Oper2,Trace6
Trace Math Offset,0
Normalize,Off
Trace Name,Trace1
X Axis Units,Hz
Y Axis Units,dBm
DATA
300000000,-54.1488717780656
305700000,-69.7045049271129
311400000,-59.2231615112834
317100000,-80.696957147684
322800000,-58.7181425079502
328500000,-47.3846132438906
334200000,-79.7317113463334
339900000,-62.8693617446114
345600000,-81.696864852493
351300000,-56.2378651812968
357000000,-70.5180399002306
362700000,-55.1783430706901
368400000,-60.6992899806964
374100000,-64.3733390211934
379800000,-70.3072171784619
385500000,-74.0115210626758
391200000,-65.2184826426109
396900000,-75.5315012018062
402600000,-55.316506500792
408300000,-75.9513009243296
414000000,-82.5967899320713
419700000,-83.4161761445258
425400000,-76.0966004383125
431100000,-69.1765241406157
436800000,-87.2075939998883
442500000,-75.7092097056025
448200000,-61.7296043571551
453900000,-85.2280822551197
459600000,-69.6689827986654
465300000,-94.2053457788448
471000000,-57.559632344404
476700000,-76.7890022158995
482400000,-75.5246914821028
488100000,-75.1505868297797
493800000,-96.2286373156105
499500000,-63.143009047638
505200000,-94.0368268497281
510900000,-75.8352667964999
516600000,-95.9244154843678
522300000,-81.8116910326739
528000000,-90.5593449094172
533700000,-96.418094493189
539400000,-96.054403510354
545100000,-95.4199683631359
550800000,-73.6972714361675
556500000,-96.5742806670386
562200000,-87.7561414557975
567900000,-86.5823515175768
573600000,-77.8967867050335
579300000,-62.038777897331
585000000,-93.3303462759179
590700000,-60.7519821171167
596400000,-85.1578885704984
602100000,-61.7029611129602
607800000,-57.426147053314
613500000,-82.0449103981566
619200000,-75.9706114597072
624900000,-78.894772925814
630600000,-60.0326726765109
636300000,-86.5715915774807
642000000,-74.9799960606041
647700000,-77.1633577568037
653400000,-82.7206427006777
659100000,-62.4920410587181
664800000,-79.2699649332391
670500000,-54.1910275272712
676200000,-68.0054636011917
681900000,-58.6047642994015
687600000,-76.242189578714
693300000,-86.2831626640757
699000000,-59.9599373259934
704700000,-71.9756268078667
710400000,-66.7316440568574
716100000,-83.8666838589639
721800000,-64.2326014673887
727500000,-59.9495912398519
733200000,-80.0483815904396
738900000,-57.1481696570863
744600000,-81.8229889788737
750300000,-52.6371729332451
756000000,-86.8226924208544
761700000,-73.072846684196
767400000,-59.6793076683818
773100000,-69.8219494852001
778800000,-57.8843601789099
784500000,-88.208126367243
790200000,-64.1521867839764
795900000,-84.2007899925803
801600000,-61.6302131402671
807300000,-60.4264608758237
813000000,-73.1850359549436
818700000,-61.4341903732069
824400000,-87.4138438208765
830100000,-71.901136999077
835800000,-78.8939136242378
841500000,-70.7514834599351
847200000,-75.3484490944306
852900000,-85.2572781864285
858600000,-71.7715071477317
864300000,-79.0233720133431
870000000,-63.5782368161338
875700000,-54.1917202488498
881400000,-65.7967223636827
887100000,-91.4421126944765
892800000,-75.1277794357985
898500000,-60.4509055526933
904200000,-85.2862243652344
909900000,-66.3180905362778
915600000,-78.0118797019094
921300000,-80.5728492540767
927000000,-82.9739066856931
932700000,-74.147328915769
938400000,-54.3111872456848
944100000,-87.9966554262259
949800000,-77.7964886339362
955500000,-83.6295978740308
961200000,-66.1376674465728
966900000,-88.902049661136
972600000,-74.2917423081167
978300000,-54.1867807194267
984000000,-78.4695844648067
989700000,-69.8103951538655
995400000,-84.1301567786165
1001100000,-52.3645058362879
1006800000,-75.8260657874032
1012500000,-75.8845896651632
1018200000,-73.0960452332514
1023900000,-77.5944966260867
1029600000,-35.6721833281541
1035300000,-78.6623445779807
1041000000,-76.0584728165122
1046700000,-77.4281297973458
1052400000,-79.4507687684723
1058100000,-80.8036410010015
1063800000,-86.6216133983898
1069500000,-87.4219371254948
1075200000,-82.2434565103811
1080900000,-58.3911106545039
1086600000,-82.1080850961042
1092300000,-70.8777891458659
1098000000,-70.1112107898917
1103700000,-81.8502976356696
1109400000,-74.9070083944304
1115100000,-88.1462346791865
1120800000,-80.2352846972877
1126500000,-63.4919651971899
1132200000,-85.2067897902771
1137900000,-76.9210257620271
1143600000,-81.7356588824437
1149300000,-69.5791059486609
1155000000,-83.0118820306287
1160700000,-77.3915813411995
1166400000,-94.6149775847445
1172100000,-89.3262785615061
1177800000,-74.4301303303901
1183500000,-84.476707006746
1189200000,-88.260372277235
1194900000,-84.0491923409586
1200600000,-68.3153718730562
1206300000,-87.782874393647
1212000000,-88.9708046307379
1217700000,-79.0086194510889
1223400000,-89.2998642495357
1229100000,-92.852289508695
1234800000,-90.8067064686065
1240500000,-91.4221000910795
1246200000,-91.8714060193067
1251900000,-77.2404903626126
1257600000,-88.8277388070382
1263300000,-88.0727292066406
1269000000,-87.7178475189966
1274700000,-85.1606262022172
1280400000,-79.1727876878029
1286100000,-84.4166678509973
1291800000,-80.2510991665257
1297500000,-78.5326429376473
1303200000,-81.4191303038343
1308900000,-84.9678962634153
1314600000,-87.6106667023212
1320300000,-82.0611565753699
1326000000,-83.3285104469679
1331700000,-86.7001503491469
1337400000,-82.7622771627891
1343100000,-83.4525353233237
1348800000,-78.4914977615918
1354500000,-90.0548449412633
1360200000,-86.3077511458098
1365900000,-82.9492121247258
1371600000,-86.2367372783379
1377300000,-70.9297951669936
1383000000,-83.8398502598091
1388700000,-81.1667680982974
1394400000,-80.0802791872101
1400100000,-77.5709923180178
1405800000,-72.7211479563447
1411500000,-82.2011568616088
1417200000,-83.4612552527647
1422900000,-81.5674545943494
1428600000,-79.3558765919062
1434300000,-82.8669911502414
1440000000,-68.8499101673138
1445700000,-86.3660464955091
1451400000,-83.0349351886139
1457100000,-89.8041445691724
1462800000,-84.8009307868451
1468500000,-82.7305838051433
1474200000,-81.8415551482236
1479900000,-78.3486101402768
1485600000,-86.5876202332252
1491300000,-87.9023396404622
1497000000,-88.3884138880733
1502700000,-52.6610331520067
1508400000,-85.3887848255093
1514100000,-93.3921559805357
1519800000,-85.9511063342306
1525500000,-89.7042706630807
1531200000,-84.9740642155762
1536900000,-86.7627692009064
1542600000,-81.840249139658
1548300000,-89.5555189099439
1554000000,-89.2992738340331
1559700000,-74.3903217674573
1565400000,-89.9887594049012
1571100000,-87.6781856497783
1576800000,-90.9301779482979
1582500000,-89.1333254595345
1588200000,-84.0526499195039
1593900000,-87.6460058084436
1599600000,-84.7675620512353
1605300000,-90.3721709819832
1611000000,-79.053767784816
1616700000,-85.991474040923
1622400000,-88.6818095615605
1628100000,-88.2860256408636
1633800000,-88.5842318369573
1639500000,-82.3417838725466
1645200000,-82.3724733405124
1650900000,-84.6585217587121
1656600000,-84.6840803902269
1662300000,-83.8146790177218
1668000000,-86.8668343957628
1673700000,-86.6874270029268
1679400000,-82.0023155939514
1685100000,-83.8474907623421
1690800000,-83.7302967902606
1696500000,-88.1919487536606
1702200000,-86.9601590853077
1707900000,-93.6284379530701
1713600000,-92.8034681784109
1719300000,-91.7824151024184
1725000000,-92.837919823776
1730700000,-90.6274657052823
1736400000,-91.7032801364029
1742100000,-96.8502940071062
1747800000,-82.8678319453495
1753500000,-94.0062897289995
1759200000,-83.7401125059692
1764900000,-89.6088504194676
1770600000,-92.192277707517
1776300000,-85.0855571923912
1782000000,-92.5760822375371
1787700000,-89.5031324493885
1793400000,-90.8379939684558
1799100000,-84.1504499416308
1804800000,-94.4735122954793
1810500000,-82.979531058476
1816200000,-92.9185428908981
1821900000,-84.9438806142786
1827600000,-86.4290035154951
1833300000,-95.2015796421633
1839000000,-93.138451769563
1844700000,-95.9643244710093
1850400000,-94.3704191400191
1856100000,-91.9415722268781
1861800000,-88.9717664002019
1867500000,-88.6583973134143
1873200000,-90.4161807370336
1878900000,-96.0542252696257
1884600000,-96.0715698711281
1890300000,-90.9819968488261
1896000000,-94.7872181933481
1901700000,-84.6559066818868
1907400000,-87.3201410865257
1913100000,-95.2817389698523
1918800000,-91.6728676192038
1924500000,-90.3397806665912
1930200000,-86.00283886147
1935900000,-83.8367755174429
1941600000,-92.7257968198424
1947300000,-85.7121373370229
1953000000,-93.9309956961961
1958700000,-87.3639138429671
1964400000,-94.3716981955313
1970100000,-95.5156700979785
1975800000,-89.4727433724052
1981500000,-93.4540023875765
1987200000,-89.9234833780959
1992900000,-96.2628782065569
1998600000,-82.3248007124366
2004300000,-94.4823175193491
2010000000,-92.833052452699
2015700000,-93.6988964511106
2021400000,-94.4877946855178
2027100000,-73.1596753788026
2032800000,-84.1146553989647
2038500000,-96.0403837665297
2044200000,-96.6000615734515
2049900000,-93.5202206421271
2055600000,-96.9300995666354
2061300000,-51.4188498919036
2067000000,-98.7992843579392
2072700000,-93.6131127017123
2078400000,-94.0930608847654
2084100000,-98.781154661108
2089800000,-94.2416982899297
2095500000,-97.0164643195926
2101200000,-96.6299446234356
2106900000,-97.9886938244838
2112600000,-89.0045085086557
2118300000,-95.936132596092
2124000000,-84.5508047247292
2129700000,-92.9071516819046
2135400000,-97.8491016459084
2141100000,-91.7757628236648
2146800000,-97.1524414595757
2152500000,-81.1446874980043
2158200000,-93.5590081672787
2163900000,-99.2532864479035
2169600000,-86.9672665667663
2175300000,-95.9489464633792
2181000000,-94.8196849418563
2186700000,-71.9818424349776
2192400000,-89.6941748103954
2198100000,-93.0734661652814
2203800000,-97.7716095382812
2209500000,-95.9812326352355
2215200000,-97.6547802696791
2220900000,-94.01383581031
2226600000,-95.264292341867
2232300000,-90.1695287575555
2238000000,-93.8213633872404
2243700000,-95.8712726146056
2249400000,-87.3989425254785
2255100000,-94.8082819450006
2260800000,-95.0356252034719
2266500000,-98.7592822646382
2272200000,-95.9667807341036
2277900000,-95.0691741907425
2283600000,-97.5287611610737
2289300000,-97.4050495903082
2295000000,-96.2368638003245
2300700000,-86.3955170789103
2306400000,-94.662287484366
2312100000,-88.83515595918
2317800000,-84.0383094194939
2323500000,-92.8733401795693
2329200000,-93.9149528834431
2334900000,-94.2460115011939
2340600000,-96.376949207161
2346300000,-84.4382111032302
2352000000,-87.535780170969
2357700000,-87.3940903031455
2363400000,-86.9703527104076
2369100000,-95.6947204273037
2374800000,-83.6645413117874
2380500000,-89.8650402137434
2386200000,-89.5545330724202
2391900000,-87.1969644763449
2397600000,-75.025484731958
2403300000,-91.7922221402941
2409000000,-93.2610786168246
2414700000,-92.0913504243734
2420400000,-92.1703117119314
2426100000,-91.3246356982568
2431800000,-88.4618852451219
2437500000,-92.4856743752586
2443200000,-92.5557180214982
2448900000,-92.2788212684379
2454600000,-93.806419308388
2460300000,-92.1888352992409
2466000000,-91.1161226485292
2471700000,-88.6142790779329
2477400000,-86.9599867763218
2483100000,-91.873162388402
2488800000,-92.6345725428034
2494500000,-94.9532612452086
2500200000,-59.8628320822258
2505900000,-92.648762497916
2511600000,-91.6288978060327
2517300000,-92.6030243853233
2523000000,-92.935850676616
2528700000,-89.1550928603867
2534400000,-91.2935387729416
2540100000,-94.3791598162372
2545800000,-93.3029614257572
2551500000,-97.1812731467001
2557200000,-93.5559112666953
2562900000,-92.8383889379725
2568600000,-93.865401193732
2574300000,-91.0443953470982
2580000000,-81.8428624724282
2585700000,-93.6876225027932
2591400000,-95.3035052055749
2597100000,-92.3016999741242
2602800000,-92.0387675770449
2608500000,-97.3356039757491
2614200000,-96.403927177443
2619900000,-91.8679540962158
2625600000,-81.6587459967079
2631300000,-98.2670054689269
2637000000,-96.8388342726062
2642700000,-85.1649134935816
2648400000,-96.2255684314132
2654100000,-75.4587413178401
2659800000,-96.8391713249611
2665500000,-98.5174075141133
2671200000,-97.4879659153347
2676900000,-95.7831350659437
2682600000,-94.5488125612722
2688300000,-83.2848475551986
2694000000,-93.0580230437244
2699700000,-84.8544778555199
2705400000,-93.0288040304814
2711100000,-93.4922970640469
2716800000,-89.0667167984438
2722500000,-95.3581601400864
2728200000,-97.5335131064798
2733900000,-98.2983145987733
2739600000,-98.7070842623233
2745300000,-98.0034063676352
2751000000,-88.3327016377685
2756700000,-95.9617652649089
2762400000,-91.2840499023604
2768100000,-93.2970368008471
2773800000,-96.8399305475273
2779500000,-96.9031504787937
2785200000,-97.9954666411868
2790900000,-99.3249314238693
2796600000,-98.0200984654845
2802300000,-85.0346307094111
2808000000,-94.7721138269417
2813700000,-76.6213026177816
2819400000,-99.065102746884
2825100000,-99.2894784523973
2830800000,-98.4570950860269
2836500000,-94.9086619423075
2842200000,-88.6242337586874
2847900000,-97.1885569131826
2853600000,-96.1293261440243
2859300000,-94.6495317887834
2865000000,-93.2395713440628
2870700000,-91.9841164768069
2876400000,-75.2383907658272
2882100000,-84.5578033969559
2887800000,-91.830265838711
2893500000,-96.8919520328624
2899200000,-97.080353360055
2904900000,-98.2832988509045
2910600000,-94.9243619744755
2916300000,-94.3785484720994
2922000000,-96.1533643814989
2927700000,-95.9197659934153
2933400000,-96.7219072842374
2939100000,-96.7441985256797
2944800000,-97.2716067624141
2950500000,-95.6166200848797
2956200000,-93.2770711511681
2961900000,-93.8119848925212
2967600000,-85.0250962643874
2973300000,-96.8683853813809
2979000000,-96.563170460189
2984700000,-95.6922962039813
2990400000,-97.5863987472241
2996100000,-90.8177589501684
3001800000,-57.3459235048376
3007500000,-94.4094735120593
3013200000,-97.252404725501
3018900000,-92.4538245338355
3024600000,-97.1840614417338
3030300000,-95.8263010941068
3036000000,-93.0643702740041
3041700000,-93.950361626921
3047400000,-94.1273013312247
3053100000,-92.6492438844805
3058800000,-95.9892988251388
3064500000,-82.5937795985345
3070200000,-96.7734039097274
3075900000,-94.9428647303564
3081600000,-92.7611897658947
3087300000,-47.2342821684803
3093000000,-92.0192853599636
3098700000,-96.0234739425688
3104400000,-94.9168031048783
3110100000,-92.0210668337556
3115800000,-92.1027963238788
3121500000,-96.8151481031076
3127200000,-83.4935312066127
3132900000,-96.2753804590629
3138600000,-97.5900884426397
3144300000,-90.4346997485558
3150000000,-93.2294772309212
3155700000,-93.5988062371063
3161400000,-95.8929020157777
3167100000,-94.4537962966872
3172800000,-97.1143714336428
3178500000,-98.2744079842003
3184200000,-99.912102354665
3189900000,-86.1148988768919
3195600000,-100.943086716921
3201300000,-86.6576306888108
3207000000,-100.513004693099
3212700000,-99.7935795440798
3218400000,-99.5225707192966
3224100000,-90.4776202702088
3229800000,-94.294023970089
3235500000,-95.543630637644
3241200000,-97.2174104933
3246900000,-97.2113057854797
3252600000,-94.3421882666698
3258300000,-96.637779525603
3264000000,-97.5385272189409
3269700000,-99.5574071031484
3275400000,-100.339974469717
3281100000,-89.5237395613506
3286800000,-96.2089795591355
3292500000,-95.7022246539024
3298200000,-97.7362523859146
3303900000,-97.3061921873424
3309600000,-97.0709121178935
3315300000,-96.9261794171236
3321000000,-100.483499488749
3326700000,-97.3707082257954
3332400000,-93.1081577646801
3338100000,-96.5390693256978
3343800000,-92.1382637736406
3349500000,-94.0763821874255
3355200000,-96.0661760439493
3360900000,-92.0828500328305
3366600000,-94.0917940624231
3372300000,-95.4551282471111
3378000000,-99.4221476636225
3383700000,-98.5691282394297
3389400000,-101.131723695784
3395100000,-98.3352633594697
3400800000,-87.6604238688596
3406500000,-99.2027094503255
3412200000,-99.7224416954938
3417900000,-99.8148803325188
3423600000,-100.85415142562
3429300000,-99.8482705189838
3435000000,-87.0331368508568
3440700000,-100.689433140826
3446400000,-98.8248501639232
3452100000,-98.9988760647879
3457800000,-97.9335601934445
3463500000,-98.4413714054599
3469200000,-97.8916797063045
3474900000,-99.4790118396337
3480600000,-100.564130045483
3486300000,-99.3130590972459
3492000000,-101.260485728538
3497700000,-56.4199264574805
3503400000,-101.789274757397
3509100000,-101.88220080941
3514800000,-101.036329447321
3520500000,-99.9221241506505
3526200000,-101.942928802515
3531900000,-101.586674488943
3537600000,-101.529622332468
3543300000,-101.461127120932
3549000000,-102.215840141986
3554700000,-101.671812889082
3560400000,-102.170732358342
3566100000,-100.245353813218
3571800000,-100.3630491748
3577500000,-100.201676807025
3583200000,-102.241949293811
3588900000,-100.35076686641
3594600000,-80.1383665229064
3600300000,-89.4958789175886
3606000000,-101.190879269757
3611700000,-100.775501577687
3617400000,-98.6840816201519
3623100000,-99.9720815972882
3628800000,-98.2051213431748
3634500000,-101.615016854119
3640200000,-99.1702015211406
3645900000,-100.116789535576
3651600000,-101.0380671077
3657300000,-101.548568894919
3663000000,-97.5544827674962
3668700000,-96.362591105267
3674400000,-96.5419666553622
3680100000,-97.4486946033409
3685800000,-96.7341578745297
3691500000,-97.0958928439413
3697200000,-99.9051811062039
3702900000,-100.524603680447
3708600000,-98.8883819405056
3714300000,-100.562463514418
3720000000,-100.252971965331
3725700000,-100.926388834082
3731400000,-100.552660634666
3737100000,-101.228010181351
3742800000,-101.736494350733
3748500000,-81.7331942434001
3754200000,-102.318209088625
3759900000,-103.169417914217
3765600000,-101.182459575289
3771300000,-101.038882891011
3777000000,-101.750103496983
3782700000,-101.504908756623
3788400000,-100.941923678171
3794100000,-102.565821010145
3799800000,-96.9770215750026
3805500000,-102.862503214931
3811200000,-98.3768305822339
3816900000,-102.492262815376
3822600000,-102.226943285483
3828300000,-102.278842292627
3834000000,-101.99661401715
3839700000,-93.6401518319873
3845400000,-99.4215582900811
3851100000,-100.955310213298
3856800000,-103.538340384471
3862500000,-102.45608668652
3868200000,-100.120218387401
3873900000,-92.4003872100911
3879600000,-102.668031144329
3885300000,-102.529458654605
3891000000,-102.845108669812
3896700000,-101.976541397077
3902400000,-101.145029423122
3908100000,-84.3923108372748
3913800000,-102.329080884825
3919500000,-101.731348027985
3925200000,-103.333857799
3930900000,-102.889430337292
3936600000,-102.576151423011
3942300000,-103.944228305659
3948000000,-102.507224929035
3953700000,-102.151261037459
3959400000,-101.329460178269
3965100000,-102.444105058729
3970800000,-101.011000540435
3976500000,-101.445087535367
3982200000,-102.915205438948
3987900000,-103.276586418382
3993600000,-103.047470469571
3999300000,-66.8704351507003
4005000000,-101.569220636137
4010700000,-99.9584120051057
4016400000,-102.170583259238
4022100000,-101.455815964677
4027800000,-101.395895019987
4033500000,-102.943927037208
4039200000,-103.697002896359
4044900000,-103.038265940706
4050600000,-102.31616310766
4056300000,-102.885495112478
4062000000,-90.1130108415109
4067700000,-102.479825138976
4073400000,-102.036278837984
4079100000,-103.259392653393
4084800000,-101.832805658904
4090500000,-103.464813620416
4096200000,-103.500871629212
4101900000,-102.291497073888
4107600000,-102.607351058831
4113300000,-103.593550452258
4119000000,-59.517802950489
4124700000,-83.8817386888553
4130400000,-103.72045164597
4136100000,-101.603117833467
4141800000,-103.790149121391
4147500000,-103.657756423222
4153200000,-103.577648419164
4158900000,-102.907296915658
4164600000,-103.263318885525
4170300000,-103.281470935675
4176000000,-103.244674133087
4181700000,-103.549434935494
4187400000,-81.4262007403967
4193100000,-103.012157136898
4198800000,-100.55330648379
4204500000,-103.151754268357
4210200000,-102.588885071269
4215900000,-84.0725837411541
4221600000,-103.751369868792
4227300000,-104.01018991986
4233000000,-104.215833463513
4238700000,-104.001484425427
4244400000,-103.792729855077
4250100000,-103.484114656208
4255800000,-104.526300649104
4261500000,-104.16257995605
4267200000,-104.560230430832
4272900000,-103.604789360396
4278600000,-104.282317607312
4284300000,-103.757668912249
4290000000,-103.380007969811
4295700000,-103.965050222675
4301400000,-103.939913672192
4307100000,-103.700546106288
4312800000,-76.4443342880312
4318500000,-104.464699352963
4324200000,-104.031670070407
4329900000,-104.304123800966
4335600000,-104.56510068257
4341300000,-104.008179918202
4347000000,-104.099394217607
4352700000,-104.038949780287
4358400000,-104.669029760965
4364100000,-104.195501358407
4369800000,-104.158861035716
4375500000,-97.5737319727629
4381200000,-104.138079887867
4386900000,-104.314429526968
4392600000,-104.344590850044
4398300000,-99.7841322693611
4404000000,-104.931098120229
4409700000,-104.126320310704
4415400000,-103.682819874188
4421100000,-103.295845092091
4426800000,-104.55265509812
4432500000,-104.019769954892
4438200000,-83.3841990586716
4443900000,-103.981101931356
4449600000,-104.95859126693
4455300000,-105.117688530719
4461000000,-104.34418290848
4466700000,-104.957113764728
4472400000,-103.459586056812
4478100000,-105.517718206742
4483800000,-103.918925647308
4489500000,-104.987520936464
4495200000,-104.760213881873
4500900000,-58.5192044462858
4506600000,-104.9295746219
4512300000,-104.423125452091
4518000000,-104.86370542374
4523700000,-105.235350688323
4529400000,-95.5666772300134
4535100000,-105.131633645023
4540800000,-104.645290043205
4546500000,-104.963629147416
4552200000,-104.328703350914
4557900000,-105.717732290852
4563600000,-90.8767443565378
4569300000,-104.770315006259
4575000000,-104.857895101976
4580700000,-105.191393395784
4586400000,-105.650989585691
4592100000,-104.939570520004
4597800000,-104.670902839537
4603500000,-104.236795447533
4609200000,-103.927293794714
4614900000,-104.716624705882
4620600000,-104.403163784791
4626300000,-98.9132108922506
4632000000,-105.161192542016
4637700000,-104.243787055271
4643400000,-104.721568107107
4649100000,-104.955245951066
4654800000,-105.156456742395
4660500000,-104.837855815675
4666200000,-105.249047184127
4671900000,-105.261162793734
4677600000,-104.385208021014
4683300000,-104.886056813308
4689000000,-91.8593237062879
4694700000,-104.580801022001
4700400000,-104.619204706834
4706100000,-105.332669568239
4711800000,-104.707891566139
4717500000,-105.255422883045
4723200000,-104.393593279196
4728900000,-105.312488875599
4734600000,-105.273743236694
4740300000,-104.952520432756
4746000000,-104.788338767578
4751700000,-105.043175896599
4757400000,-105.009155079705
4763100000,-104.965785900818
4768800000,-104.925449974367
4774500000,-105.136187504137
4780200000,-105.509512748708
4785900000,-104.193636049091
4791600000,-104.226802680945
4797300000,-93.8190932174694
4803000000,-104.811296491605
4808700000,-105.181973538725
4814400000,-104.463675553942
4820100000,-105.518952869237
4825800000,-105.358709377114
4831500000,-105.144593644404
4837200000,-106.378861263588
4842900000,-89.9903435960242
4848600000,-105.556011544137
4854300000,-105.328290204475
4860000000,-105.83354696745
4865700000,-105.840792746115
4871400000,-106.421951841241
4877100000,-106.115673614027
4882800000,-106.304668018314
4888500000,-105.460614954882
4894200000,-106.547825444866
4899900000,-106.539732941413
4905600000,-106.748874847189
4911300000,-106.044605867834
4917000000,-106.162280712919
4922700000,-106.3854516883
4928400000,-106.694201085364
4934100000,-106.249786991713
4939800000,-106.184486580076
4945500000,-106.693042335668
4951200000,-106.672374331196
4956900000,-106.676352589537
4962600000,-106.592181745656
4968300000,-105.502130717186
4974000000,-106.106031885969
4979700000,-105.805105351615
4985400000,-106.638935818368
4991100000,-106.034302115043
4996800000,-105.046526594033
5002500000,-76.312609363089
5008200000,-105.941141679764
5013900000,-105.361352118368
5019600000,-106.399970206736
5025300000,-106.050602215537
5031000000,-105.716125031707
5036700000,-106.294263574944
5042400000,-106.011497612397
5048100000,-105.091945039854
5053800000,-105.36166946866
5059500000,-106.339807198319
5065200000,-105.276769755607
5070900000,-105.802210090172
5076600000,-106.095543672977
5082300000,-105.766210489309
5088000000,-104.754016059639
5093700000,-105.375757410989
5099400000,-105.702808384579
5105100000,-106.049579587346
5110800000,-105.859867230653
5116500000,-105.493135421343
5122200000,-104.68619892278
5127900000,-105.691428511413
5133600000,-106.007651372274
5139300000,-105.483529898135
5145000000,-105.820266918734
5150700000,-64.3912082983616
5156400000,-81.5006591359383
5162100000,-106.42222396936
5167800000,-106.439655002594
5173500000,-106.359009708182
5179200000,-106.38034362058
5184900000,-105.195422354233
5190600000,-106.306737213157
5196300000,-105.745536936244
5202000000,-97.5180536445021
5207700000,-105.324142271664
5213400000,-106.842257371559
5219100000,-107.167325528228
5224800000,-105.957210742158
5230500000,-106.534654827504
5236200000,-106.393967233845
5241900000,-106.625848670281
5247600000,-106.633870899284
5253300000,-105.842507396267
5259000000,-106.864920394265
5264700000,-106.8725275075
5270400000,-105.415843029879
5276100000,-105.684153492881
5281800000,-106.266593596504
5287500000,-106.764683925018
5293200000,-106.746791851896
5298900000,-107.424643671147
5304600000,-107.175347792059
5310300000,-104.651984496467
5316000000,-106.990545442734
5321700000,-106.063905776495
5327400000,-106.728396792253
5333100000,-106.210379172321
5338800000,-107.327138809418
5344500000,-107.387884625099
5350200000,-106.480485937914
5355900000,-107.107432030305
5361600000,-106.858023544154
5367300000,-107.383449732301
5373000000,-107.43017492137
5378700000,-107.247393952672
5384400000,-107.118364866903
5390100000,-107.103867610931
5395800000,-107.282881223147
5401500000,-107.350162708722
5407200000,-106.216031719416
5412900000,-107.156661917124
5418600000,-106.73826100054
5424300000,-106.931426523877
5430000000,-106.681819115626
5435700000,-105.523221833562
5441400000,-106.636744782785
5447100000,-107.779776201708
5452800000,-107.624279088004
5458500000,-107.010313531691
5464200000,-107.004364657903
5469900000,-98.2115586333062
5475600000,-107.070785578489
5481300000,-107.390956916068
5487000000,-106.641619503618
5492700000,-106.142187922861
5498400000,-80.3376410438511
5504100000,-106.072895511146
5509800000,-107.222125940778
5515500000,-105.894860152853
5521200000,-106.08254459698
5526900000,-106.616418814953
5532600000,-106.253343403334
5538300000,-106.430250045069
5544000000,-106.629707318874
5549700000,-106.948561027151
5555400000,-106.530999951027
5561100000,-106.321489536472
5566800000,-106.674848208805
5572500000,-106.702751963179
5578200000,-105.389309918076
5583900000,-107.056504021414
5589600000,-107.844073477883
5595300000,-106.936929815638
5601000000,-106.699757281813
5606700000,-107.449296569529
5612400000,-107.320611531929
5618100000,-107.621967598348
5623800000,-102.880394085391
5629500000,-106.435217581436
5635200000,-108.035029881645
5640900000,-106.066580993115
5646600000,-107.232014389777
5652300000,-106.94922009238
5658000000,-107.102589020574
5663700000,-106.680835753967
5669400000,-107.57135364747
5675100000,-107.168638957003
5680800000,-107.348102202682
5686500000,-102.440852738972
5692200000,-106.776693153521
5697900000,-107.007765008008
5703600000,-107.016309314014
5709300000,-106.868589285491
5715000000,-107.490407284812
5720700000,-107.763029964531
5726400000,-106.881249934375
5732100000,-106.885433783112
5737800000,-107.29345671138
5743500000,-107.397520819077
5749200000,-107.473690424687
5754900000,-107.208579670961
5760600000,-107.286829547704
5766300000,-108.034946667957
5772000000,-107.092048645573
5777700000,-106.901321360717
5783400000,-98.647589635649
5789100000,-107.094384206971
5794800000,-106.928403977208
5800500000,-106.324067853134
5806200000,-106.944270548285
5811900000,-105.286314053471
5817600000,-106.559455265896
5823300000,-106.75680039751
5829000000,-107.049690019251
5834700000,-106.237184206363
5840400000,-106.414611298746
5846100000,-106.873687544185
5851800000,-107.240041292452
5857500000,-105.975618895206
5863200000,-107.07937871642
5868900000,-107.135353605221
5874600000,-107.204403930701
5880300000,-107.007059492486
5886000000,-107.644667491172
5891700000,-107.05105990501
5897400000,-107.493315789789
5903100000,-106.828636448349
5908800000,-107.829695269815
5914500000,-107.825648176574
5920200000,-108.463475439129
5925900000,-107.949055601645
5931600000,-106.948158019472
5937300000,-102.112553984459
5943000000,-107.343990994541
5948700000,-107.90217784975
5954400000,-107.455718238637
5960100000,-107.373206784688
5965800000,-108.423743030021
5971500000,-108.196638387509
5977200000,-106.97276347076
5982900000,-108.035309863619
5988600000,-107.53820808521
5994300000,-107.390862202299
6000000000,-107.342537651638
