Trace
Swept SA
A.16.17,N9010A
526 FS1 ,01
Segment,0
Number of Points,1001
Sweep Time,656.175767597013
Start Frequency,300000000
Stop Frequency,6000000000
Average Count,1
Average Type,LogPower(Video)
RBW,100
RBW Filter,Gaussian
RBW Filter BW,3dB
VBW,1000
Sweep Type,Fft
X Axis Scale,Lin
PreAmp State,Off
PreAmp Band,Low
Trigger Source,Free
Trigger Level,1.2
Trigger Slope,Positive
Trigger Delay,0
Phase Noise Optimization,Fast
Swept If Gain,High
FFT If Gain,Autorange
RF Coupling,AC
FFT Width,411900
Ext Ref,10000000
Input,RF
RF Calibrator,Off
Attenuation,0
Ref Level Offset,0
External Gain,0
Trace Type,Maxhold
Detector,Peak
Trace Math,Off
Trace Math Oper1,Trace5
Trace Math Oper2,Trace6
Trace Math Offset,0
Normalize,Off
Trace Name,Trace1
X Axis Units,Hz
Y Axis Units,dBm
DATA
300000000,-39.1018473241162
305700000,-59.7691486368974
311400000,-52.1799324456472
317100000,-61.3430326914637
322800000,-40.5405971219951
328500000,-52.1646094473336
334200000,-67.3783496828869
339900000,-52.6483427395738
345600000,-58.9966852568865
351300000,-42.3489890397244
357000000,-63.4028676350068
362700000,-54.5425430443613
368400000,-54.9965821743888
374100000,-50.9545784488807
379800000,-62.4624237227711
385500000,-52.4174475625401
391200000,-48.9719911128767
396900000,-58.5424475357661
402600000,-44.3004073748171
408300000,-51.9409241398484
414000000,-68.172097925669
419700000,-65.0274171581448
425400000,-58.5717217327812
431100000,-45.2892394991934
436800000,-74.2511639564482
442500000,-55.6988246225894
448200000,-40.560230649148
453900000,-71.0910980128571
459600000,-56.4347338109744
465300000,-75.2194767574173
471000000,-41.5704747550498
476700000,-61.4598704375482
482400000,-59.9340136971975
488100000,-48.5863850703178
493800000,-72.9071913161606
499500000,-43.5751802053754
505200000,-70.0490809050738
510900000,-66.9652335123238
516600000,-77.8897199383267
522300000,-52.8609617836453
528000000,-54.5140134160171
533700000,-82.8239374068923
539400000,-65.9076436535659
545100000,-77.4200678751973
550800000,-56.1924552830443
556500000,-80.4927479117069
562200000,-55.4868795207963
567900000,-70.2724670374405
573600000,-47.5771348851325
579300000,-47.1607977498363
585000000,-74.5686669072055
590700000,-40.4643137124032
596400000,-67.7015644915692
602100000,-53.7688246816817
607800000,-44.4252922211869
613500000,-64.8222433705604
619200000,-47.7172962328933
624900000,-45.0105531679206
630600000,-36.7297693275149
636300000,-64.5668625635497
642000000,-41.5333323634767
647700000,-49.682914442877
653400000,-65.4301276869214
659100000,-39.5003508913737
664800000,-57.0626352676416
670500000,-41.851002244515
676200000,-45.0137010609419
681900000,-45.6321187241123
687600000,-41.8300382978696
693300000,-54.6782264709473
699000000,-34.1455561684221
704700000,-52.6228719494703
710400000,-37.3091647958826
716100000,-62.9245368830024
721800000,-45.8513772487176
727500000,-41.3512301380961
733200000,-62.5077194645392
738900000,-35.316783060943
744600000,-58.7617790177791
750300000,-34.8112649112734
756000000,-65.2143880396617
761700000,-40.9792267655917
767400000,-37.9911233791908
773100000,-51.4728012153496
778800000,-48.4678643613991
784500000,-59.0501220780669
790200000,-43.9414342291253
795900000,-61.8534706656277
801600000,-47.0535847056564
807300000,-39.3621281098282
813000000,-60.6140902148805
818700000,-35.3089628063905
824400000,-60.9831142594638
830100000,-42.7700220531343
835800000,-61.4894287329664
841500000,-48.2241484203353
847200000,-49.9888866421035
852900000,-59.2531713623849
858600000,-46.4844982561896
864300000,-65.1791655588652
870000000,-47.2438433466829
875700000,-36.9121143957859
881400000,-48.6300337266047
887100000,-66.0600452470823
892800000,-47.8200933714313
898500000,-46.7810639327383
904200000,-62.3681659701598
909900000,-47.9112159208869
915600000,-60.6250262782101
921300000,-41.3018497438938
927000000,-62.4593206306651
932700000,-51.2672369416222
938400000,-53.3370437630024
944100000,-62.7292031739145
949800000,-53.8998589360869
955500000,-67.2356013316753
961200000,-55.4064108830118
966900000,-65.0601184793931
972600000,-53.4721644149837
978300000,-47.6077276976174
984000000,-63.6115645635449
989700000,-47.7877222339969
995400000,-65.2106084658748
1001100000,-44.0338769926949
1006800000,-68.5084179278784
1012500000,-58.9841913932591
1018200000,-48.919477864674
1023900000,-58.2543470372997
1029600000,-29.5444447362965
1035300000,-61.5533956703796
1041000000,-59.9062406749541
1046700000,-64.9787732224081
1052400000,-56.5159287045138
1058100000,-51.5556176063121
1063800000,-69.3016473104043
1069500000,-55.8664761629253
1075200000,-67.4119590053168
1080900000,-52.6839281016657
1086600000,-69.3864616874019
1092300000,-65.4025045502704
1098000000,-56.0399254784675
1103700000,-64.7739035390868
1109400000,-62.2067326627231
1115100000,-69.4095929025581
1120800000,-68.11728212316
1126500000,-36.1911849188686
1132200000,-61.5366504407947
1137900000,-57.9055281458294
1143600000,-66.5613820300633
1149300000,-65.4374442734822
1155000000,-68.4730032212905
1160700000,-56.6619942975865
1166400000,-70.8316313343422
1172100000,-61.3065944946464
1177800000,-63.707133618253
1183500000,-69.8013176544348
1189200000,-65.3024737115409
1194900000,-67.1450327734449
1200600000,-56.3750018963505
1206300000,-68.0278587119621
1212000000,-61.8618957052963
1217700000,-65.08733217246
1223400000,-71.5567617289835
1229100000,-64.8773731568275
1234800000,-73.0311200269826
1240500000,-65.980861100632
1246200000,-65.5472735431113
1251900000,-62.6645164412967
1257600000,-58.4989075830295
1263300000,-72.9783143265458
1269000000,-68.1917726698416
1274700000,-64.5283722577508
1280400000,-59.9267561040812
1286100000,-70.0524155282633
1291800000,-61.4856608287037
1297500000,-65.3407059962126
1303200000,-69.6882208076428
1308900000,-69.561489239196
1314600000,-68.3267089615978
1320300000,-67.0479514470264
1326000000,-68.8186691765763
1331700000,-70.9119702112255
1337400000,-64.9837052478173
1343100000,-66.9440721668128
1348800000,-44.8638045025304
1354500000,-66.4934725130899
1360200000,-60.8868058224074
1365900000,-67.1766402898737
1371600000,-65.6420779941456
1377300000,-60.4334739955782
1383000000,-64.800932825203
1388700000,-64.8584695120708
1394400000,-62.8373739505345
1400100000,-63.4601509197778
1405800000,-59.2452198248508
1411500000,-65.8140229845951
1417200000,-62.8759805107978
1422900000,-66.8671639651138
1428600000,-65.3701362462128
1434300000,-68.6511208821709
1440000000,-57.7391938317299
1445700000,-68.0150888424751
1451400000,-62.0225728298568
1457100000,-70.9556066284518
1462800000,-61.7682128228647
1468500000,-66.4386197284192
1474200000,-67.9611527015248
1479900000,-66.1482474036633
1485600000,-69.7121304121686
1491300000,-62.154015147026
1497000000,-69.1299729831971
1502700000,-50.5766093933718
1508400000,-66.2499739017108
1514100000,-69.4175812106015
1519800000,-68.5656741085915
1525500000,-68.5301292818236
1531200000,-66.2927483374513
1536900000,-73.1618801439766
1542600000,-70.0469027639387
1548300000,-64.001108959379
1554000000,-69.6283357061961
1559700000,-61.6546301180158
1565400000,-65.4936801193316
1571100000,-64.2043469102984
1576800000,-71.4322195103018
1582500000,-68.6012826192346
1588200000,-65.7365679907552
1593900000,-64.9370445924305
1599600000,-66.2741602692998
1605300000,-64.9547680119249
1611000000,-64.5629856028192
1616700000,-65.3913665124973
1622400000,-67.2364306956147
1628100000,-62.9310462856393
1633800000,-65.5774298602694
1639500000,-66.1719995224414
1645200000,-67.3550569003814
1650900000,-64.7441755326633
1656600000,-66.5596593169456
1662300000,-69.9308899015565
1668000000,-70.872508951892
1673700000,-73.1223584581621
1679400000,-70.8789696761405
1685100000,-67.8066431346266
1690800000,-70.7200059492313
1696500000,-67.7679518212541
1702200000,-68.9266727625073
1707900000,-72.3626658483066
1713600000,-73.6464525487032
1719300000,-64.3686837944166
1725000000,-74.0394158453075
1730700000,-71.5837825611072
1736400000,-71.62893447295
1742100000,-74.9805608526562
1747800000,-67.2662238147367
1753500000,-73.6965234505357
1759200000,-71.6790050842038
1764900000,-69.513116071359
1770600000,-74.500545014734
1776300000,-76.2432523099715
1782000000,-72.3431245367166
1787700000,-75.7920759726273
1793400000,-77.5885245884744
1799100000,-73.6274544240387
1804800000,-72.8065995631078
1810500000,-71.1884419275492
1816200000,-73.5735697828702
1821900000,-71.1823692350204
1827600000,-78.672468836424
1833300000,-80.4805086880011
1839000000,-72.2503940478226
1844700000,-73.4310140668994
1850400000,-68.0179045898534
1856100000,-72.3130462308426
1861800000,-66.505151471787
1867500000,-74.7218659016952
1873200000,-63.1790158829187
1878900000,-66.2043286922834
1884600000,-80.535093486493
1890300000,-70.5247938483506
1896000000,-79.6108292730331
1901700000,-73.625210182036
1907400000,-79.4865740353588
1913100000,-80.5488996962216
1918800000,-66.3356716455648
1924500000,-80.2041249407355
1930200000,-70.7886279712144
1935900000,-71.0963732811546
1941600000,-77.6519082984735
1947300000,-76.3237250301688
1953000000,-79.0425438137685
1958700000,-74.6733320536252
1964400000,-79.5399530455105
1970100000,-79.6852831425973
1975800000,-83.4912351125982
1981500000,-75.0538146992516
1987200000,-78.6520712501598
1992900000,-78.0037538181463
1998600000,-53.5152441423314
2004300000,-82.5669421093338
2010000000,-79.0154119850256
2015700000,-81.2174041264066
2021400000,-83.7906125156316
2027100000,-69.2161131458354
2032800000,-67.6271829499999
2038500000,-79.8916302322926
2044200000,-78.1625885672752
2049900000,-74.3952844089872
2055600000,-83.8841223892445
2061300000,-59.0331247838982
2067000000,-85.0316509970037
2072700000,-79.9052474796332
2078400000,-77.8868747267703
2084100000,-79.8594346458419
2089800000,-74.7865394132927
2095500000,-82.4099179609542
2101200000,-73.979287597081
2106900000,-76.4058227549782
2112600000,-73.4141651910964
2118300000,-78.0404299349045
2124000000,-69.9418622736003
2129700000,-78.305650975089
2135400000,-85.3365343327236
2141100000,-78.1294927296021
2146800000,-76.9485219231237
2152500000,-78.4388877903693
2158200000,-82.4124883670373
2163900000,-81.2898660382237
2169600000,-80.5025798373376
2175300000,-85.0662902140073
2181000000,-81.9641868887757
2186700000,-65.9154648350165
2192400000,-80.072698760161
2198100000,-77.4022206463404
2203800000,-75.6077359930492
2209500000,-79.3664326136169
2215200000,-78.8640692450202
2220900000,-75.3768364881916
2226600000,-81.2775982138079
2232300000,-82.1368975527134
2238000000,-76.950461500792
2243700000,-75.9104493091778
2249400000,-68.3709068480439
2255100000,-77.4456938263639
2260800000,-78.5281515976739
2266500000,-75.7255922541246
2272200000,-76.8493089849785
2277900000,-80.0401668227521
2283600000,-77.4677070290802
2289300000,-76.6799206427096
2295000000,-77.4774543914188
2300700000,-80.9417892210147
2306400000,-75.0141088606465
2312100000,-75.2088189374592
2317800000,-75.653968829335
2323500000,-75.1230644534169
2329200000,-76.908223367974
2334900000,-76.8682336714363
2340600000,-77.6242889730305
2346300000,-64.1984972675497
2352000000,-76.8400552702432
2357700000,-76.8714246872884
2363400000,-72.0320354757749
2369100000,-73.0322696503869
2374800000,-71.7042268036626
2380500000,-72.3826668853451
2386200000,-74.5222150025465
2391900000,-72.2054450126847
2397600000,-60.3658397700272
2403300000,-72.7366994540832
2409000000,-70.9379103237808
2414700000,-73.1806059821353
2420400000,-72.2364018443605
2426100000,-71.6847722624964
2431800000,-74.0916141893063
2437500000,-74.0837692354803
2443200000,-72.8579861113386
2448900000,-73.2956400909982
2454600000,-75.3031550547424
2460300000,-72.5048359255075
2466000000,-71.0531432658869
2471700000,-76.9086842764041
2477400000,-75.7164289584711
2483100000,-75.1999292814565
2488800000,-76.3119070712918
2494500000,-78.3073489547613
2500200000,-45.0689713841453
2505900000,-74.0543069700127
2511600000,-73.921472270072
2517300000,-73.8802587734377
2523000000,-75.9793945460818
2528700000,-76.3366013018854
2534400000,-72.619175526695
2540100000,-73.1815164465514
2545800000,-73.2133234048611
2551500000,-78.4929092751802
2557200000,-76.5198426963325
2562900000,-76.5944076966685
2568600000,-75.0122189767196
2574300000,-75.0541234151526
2580000000,-71.5383096855189
2585700000,-78.825712995447
2591400000,-78.1602615371236
2597100000,-76.282782322153
2602800000,-75.6281350500555
2608500000,-73.2824108814633
2614200000,-74.5280657390817
2619900000,-76.6323198475828
2625600000,-73.2936212892729
2631300000,-79.7915812212573
2637000000,-81.5380665170812
2642700000,-78.994768941668
2648400000,-77.5504711368393
2654100000,-72.4833192356943
2659800000,-78.775294100365
2665500000,-77.0399162725323
2671200000,-79.0273395569335
2676900000,-81.9535570255745
2682600000,-79.132899222677
2688300000,-74.2717937696438
2694000000,-82.7059459220072
2699700000,-74.7906973807272
2705400000,-81.1092101502078
2711100000,-80.5750801520195
2716800000,-76.3844242138833
2722500000,-76.6338554538135
2728200000,-81.0733742088465
2733900000,-83.5009391345153
2739600000,-82.350465835147
2745300000,-83.0293691897203
2751000000,-69.5620353082786
2756700000,-79.2284173339344
2762400000,-78.9324548608801
2768100000,-82.7801179381797
2773800000,-83.4104547157697
2779500000,-82.2939412395934
2785200000,-80.2954547837419
2790900000,-82.2262355370916
2796600000,-82.5862683181713
2802300000,-72.7761470650344
2808000000,-83.4005491122584
2813700000,-63.8160219113573
2819400000,-86.1013382530815
2825100000,-85.2717925765887
2830800000,-84.5418802076096
2836500000,-86.0926539681621
2842200000,-83.4512007152793
2847900000,-85.0471922308447
2853600000,-85.2231292113773
2859300000,-83.0682111236672
2865000000,-83.0749628552109
2870700000,-84.7266155452949
2876400000,-71.929568401075
2882100000,-84.5532110821814
2887800000,-81.8282958900672
2893500000,-80.4310308710821
2899200000,-82.493327323999
2904900000,-84.9827968528442
2910600000,-86.1901662389073
2916300000,-85.347481010215
2922000000,-84.9354768431781
2927700000,-79.807563081919
2933400000,-81.1575272034602
2939100000,-63.9900683874554
2944800000,-78.2061681218323
2950500000,-81.1672333405657
2956200000,-83.0677692294009
2961900000,-85.1279583584526
2967600000,-70.3433218566653
2973300000,-87.2479581298602
2979000000,-81.2211252809697
2984700000,-81.255302655727
2990400000,-79.7234205628498
2996100000,-78.1850359579856
3001800000,-60.879114393589
3007500000,-83.5472181007489
3013200000,-82.9859584071172
3018900000,-79.9665016224262
3024600000,-81.9630470265929
3030300000,-80.7035385218548
3036000000,-79.8738362606026
3041700000,-81.8885156287974
3047400000,-78.8595620724046
3053100000,-79.0907104303962
3058800000,-80.3810445424504
3064500000,-68.288127933587
3070200000,-77.919874865925
3075900000,-78.1432049426274
3081600000,-77.1025045985039
3087300000,-39.97850109362
3093000000,-76.2668857768774
3098700000,-76.9489540157199
3104400000,-76.8245431140521
3110100000,-78.8078947544843
3115800000,-81.4649812407579
3121500000,-78.9343646160021
3127200000,-72.3063474568384
3132900000,-79.0599563453771
3138600000,-75.7540850163219
3144300000,-71.6212443350242
3150000000,-80.4903487834973
3155700000,-82.8818679294302
3161400000,-79.7889691137508
3167100000,-77.028788881461
3172800000,-76.3576404595877
3178500000,-81.8599728830562
3184200000,-80.9763451198007
3189900000,-72.5206147729916
3195600000,-75.4913353451914
3201300000,-74.7891355437302
3207000000,-81.343178504311
3212700000,-78.336334706634
3218400000,-79.3890672580689
3224100000,-79.6646686236274
3229800000,-77.9167957989284
3235500000,-80.0338943385051
3241200000,-79.456739236231
3246900000,-81.7257445761687
3252600000,-78.7501982505537
3258300000,-81.4121827394876
3264000000,-80.6136448366462
3269700000,-81.354323103725
3275400000,-86.8141338638799
3281100000,-78.6827002687531
3286800000,-79.7539713179637
3292500000,-80.2123203661632
3298200000,-81.6239148243083
3303900000,-84.5012945473013
3309600000,-81.3529703714209
3315300000,-80.6680943468301
3321000000,-84.5968225211199
3326700000,-86.1496057312283
3332400000,-83.7153141811721
3338100000,-83.6952352241561
3343800000,-84.0075686000445
3349500000,-83.0122204366839
3355200000,-85.6130722323353
3360900000,-82.3137168298361
3366600000,-83.8693932009652
3372300000,-80.7079667465036
3378000000,-85.737896843827
3383700000,-84.2315315671442
3389400000,-81.5619609846585
3395100000,-82.6029801639852
3400800000,-81.5971235831185
3406500000,-82.3920195808685
3412200000,-82.173401417894
3417900000,-85.3783932374397
3423600000,-87.2317559857641
3429300000,-87.48153674774
3435000000,-79.8460335428247
3440700000,-86.2576739364404
3446400000,-85.6121495523695
3452100000,-82.4625380693821
3457800000,-89.3850362457877
3463500000,-90.926029098176
3469200000,-88.9571562347334
3474900000,-87.4662616053956
3480600000,-87.9159985212012
3486300000,-89.0805122122403
3492000000,-88.4338995017434
3497700000,-45.1078062664081
3503400000,-85.1238541136391
3509100000,-88.4524775876531
3514800000,-89.0669149817427
3520500000,-87.9404373370482
3526200000,-86.5770556703247
3531900000,-89.2456962347302
3537600000,-87.8457146504227
3543300000,-89.3032960226093
3549000000,-86.6323426772151
3554700000,-87.0393190529411
3560400000,-84.3190984310185
3566100000,-87.2448348620639
3571800000,-89.3872615565636
3577500000,-90.2861956108122
3583200000,-85.6848097142146
3588900000,-87.3405508851382
3594600000,-73.2652900455654
3600300000,-71.4691445677215
3606000000,-83.6019872281233
3611700000,-86.498330514049
3617400000,-85.1370559758219
3623100000,-82.5298582323778
3628800000,-90.6158640982063
3634500000,-88.3065376438128
3640200000,-86.8399947774581
3645900000,-85.6165303845714
3651600000,-86.8489204036007
3657300000,-92.1590578766216
3663000000,-86.5075110259958
3668700000,-86.4008745523767
3674400000,-88.6141850380321
3680100000,-88.7678481120254
3685800000,-87.6863724843555
3691500000,-87.9975818457419
3697200000,-90.1228044561538
3702900000,-89.7388698704115
3708600000,-87.8922932464215
3714300000,-87.5692221769993
3720000000,-87.210173122336
3725700000,-89.8203388077986
3731400000,-87.0311930356273
3737100000,-86.1245997314611
3742800000,-84.2453641681291
3748500000,-70.9637099636716
3754200000,-84.3597599806429
3759900000,-86.9309401887991
3765600000,-85.7717331881232
3771300000,-89.0846891255568
3777000000,-84.1805065661547
3782700000,-86.9737700841116
3788400000,-83.5980427212791
3794100000,-85.1862980372165
3799800000,-86.6765123609524
3805500000,-86.2958652843638
3811200000,-87.6597482136178
3816900000,-85.4396170173236
3822600000,-82.4605729512937
3828300000,-88.1893346471224
3834000000,-87.7070392883229
3839700000,-87.4857375120671
3845400000,-86.1671561327342
3851100000,-86.8406907642498
3856800000,-84.942678639115
3862500000,-85.8757950694426
3868200000,-89.1031784988912
3873900000,-88.4456595249164
3879600000,-87.7303085138753
3885300000,-82.4592193794491
3891000000,-83.2121320861996
3896700000,-83.1816755897857
3902400000,-86.6676483487613
3908100000,-72.2127496839596
3913800000,-85.6646826275129
3919500000,-84.8908656842397
3925200000,-81.6330880008075
3930900000,-83.1674159182235
3936600000,-86.0305263535528
3942300000,-87.2432136029264
3948000000,-86.2924436054497
3953700000,-84.2647664571101
3959400000,-86.5067577869342
3965100000,-84.8854084448376
3970800000,-83.1448547393549
3976500000,-83.6690481951244
3982200000,-80.6828908775259
3987900000,-81.0304746118755
3993600000,-83.4364604087348
3999300000,-67.4884932161669
4005000000,-86.7792975716442
4010700000,-83.3299580373359
4016400000,-83.324434321761
4022100000,-86.7355917199618
4027800000,-86.2888695570484
4033500000,-86.4668513491626
4039200000,-85.145658027742
4044900000,-85.6678922806242
4050600000,-87.2091520997062
4056300000,-85.1351020171886
4062000000,-71.3969824266728
4067700000,-87.699175811144
4073400000,-84.903316354703
4079100000,-84.9600922232495
4084800000,-82.5083125855084
4090500000,-82.8800995152349
4096200000,-84.5874041906643
4101900000,-82.3421450949458
4107600000,-84.7792272683042
4113300000,-87.1757869905493
4119000000,-44.9593502078257
4124700000,-83.7417678976024
4130400000,-90.5596395168831
4136100000,-90.6210404642645
4141800000,-85.285327203445
4147500000,-86.0908896761285
4153200000,-89.7314408613405
4158900000,-87.3300766235977
4164600000,-85.5766964866024
4170300000,-86.2883622015899
4176000000,-88.8721248723425
4181700000,-90.3360137861511
4187400000,-75.663813792087
4193100000,-87.2417738220535
4198800000,-88.9826345652844
4204500000,-88.0777355886889
4210200000,-92.1082710788278
4215900000,-68.8871373975987
4221600000,-91.719958294872
4227300000,-92.9367271161157
4233000000,-94.9605555901151
4238700000,-91.8609380897012
4244400000,-91.5666501625403
4250100000,-73.4520144993627
4255800000,-90.9165030960275
4261500000,-90.0915812534845
4267200000,-92.2084711528979
4272900000,-92.19332280269
4278600000,-93.0960428245699
4284300000,-93.4391291899614
4290000000,-95.5656628058004
4295700000,-95.7520377575516
4301400000,-91.9996161766119
4307100000,-88.8280123292533
4312800000,-70.746648056652
4318500000,-90.6957693731487
4324200000,-94.0011253803842
4329900000,-94.9928966888072
4335600000,-99.7240251216584
4341300000,-96.5612847982216
4347000000,-92.0001638400362
4352700000,-93.9305134862431
4358400000,-95.0438830435464
4364100000,-96.7000599730975
4369800000,-91.5685237074188
4375500000,-74.4417811696485
4381200000,-90.613520345174
4386900000,-96.4490013382544
4392600000,-93.5139322883921
4398300000,-91.9304985909553
4404000000,-92.1775578359821
4409700000,-95.3309258063988
4415400000,-94.0265516575462
4421100000,-92.72752220556
4426800000,-94.3492734136533
4432500000,-94.2305041913457
4438200000,-72.1653492950892
4443900000,-96.4902032832052
4449600000,-94.0166843517567
4455300000,-93.3702078923576
4461000000,-93.2484514746024
4466700000,-88.1224384298545
4472400000,-88.49525504757
4478100000,-88.0817429053723
4483800000,-89.6463006663751
4489500000,-90.1302839051887
4495200000,-91.7278516624688
4500900000,-46.2066427155088
4506600000,-92.9451447122321
4512300000,-95.8770983678799
4518000000,-92.1486381214927
4523700000,-89.7040861132619
4529400000,-72.5136376063287
4535100000,-92.494718262013
4540800000,-93.6931920963091
4546500000,-91.6528772517381
4552200000,-93.4019744555766
4557900000,-94.375448924192
4563600000,-96.169135554896
4569300000,-93.9277078217054
4575000000,-95.3758193166614
4580700000,-93.9213294341257
4586400000,-91.9500926512752
4592100000,-91.9397672097973
4597800000,-94.0640307376975
4603500000,-92.0538188609718
4609200000,-92.0799087004273
4614900000,-91.0762703363789
4620600000,-90.4604217261507
4626300000,-87.5588189877709
4632000000,-90.0405629246671
4637700000,-88.3400990258423
4643400000,-90.2243276305248
4649100000,-90.5519348650272
4654800000,-87.8513721943472
4660500000,-86.94220053797
4666200000,-87.2315625113106
4671900000,-87.5873864729804
4677600000,-87.7744423515458
4683300000,-86.1347394221014
4689000000,-78.862203951243
4694700000,-88.232614508894
4700400000,-88.6922975015138
4706100000,-88.0221822947012
4711800000,-90.7811509425716
4717500000,-89.9061231825985
4723200000,-89.6747559338937
4728900000,-89.4353220833081
4734600000,-89.8551059104184
4740300000,-89.3372675022679
4746000000,-88.8889050204824
4751700000,-88.2813424369138
4757400000,-90.8565164561458
4763100000,-94.1800159857187
4768800000,-92.7824292032884
4774500000,-90.1710778062207
4780200000,-90.8154626667331
4785900000,-87.8555112215828
4791600000,-90.0762036904932
4797300000,-81.2292636206771
4803000000,-90.5694938259809
4808700000,-89.2249649134306
4814400000,-91.375218255625
4820100000,-92.6785305817979
4825800000,-92.7631237780162
4831500000,-91.3052165435631
4837200000,-92.7759858158871
4842900000,-75.9821276029253
4848600000,-90.8321186260244
4854300000,-91.8654271784852
4860000000,-91.5758321984323
4865700000,-95.133376322085
4871400000,-95.6572486116507
4877100000,-85.7050359891033
4882800000,-93.6807535746506
4888500000,-92.3981368766617
4894200000,-93.0492748468482
4899900000,-92.3167485790691
4905600000,-94.333459001059
4911300000,-93.4390213628187
4917000000,-96.4359748112609
4922700000,-97.7822832324404
4928400000,-100.292147823832
4934100000,-97.0185482397469
4939800000,-94.5621932647163
4945500000,-100.930441386242
4951200000,-98.6413587098194
4956900000,-97.2194335000957
4962600000,-98.3504009150658
4968300000,-94.2753266172975
4974000000,-94.5872817014846
4979700000,-94.5593771175735
4985400000,-94.1220014868128
4991100000,-95.8266948050224
4996800000,-99.7788917386863
5002500000,-66.8752431155077
5008200000,-96.4360912604659
5013900000,-94.5391505216998
5019600000,-95.233776559453
5025300000,-95.3128545668
5031000000,-94.8166616715371
5036700000,-91.7713793190469
5042400000,-93.3742015168883
5048100000,-96.2203585870903
5053800000,-97.6490017350219
5059500000,-97.5776875949251
5065200000,-97.7586527871338
5070900000,-96.5447096110545
5076600000,-96.7148565820054
5082300000,-97.3379568559089
5088000000,-98.060038274146
5093700000,-96.5804373187685
5099400000,-95.155180311095
5105100000,-96.4283491336041
5110800000,-99.3974297812697
5116500000,-97.5719279226487
5122200000,-96.6887123116219
5127900000,-99.8510012009996
5133600000,-99.3792211704839
5139300000,-99.541147274131
5145000000,-101.478309540626
5150700000,-42.7146912236264
5156400000,-63.2692034643705
5162100000,-97.1485635950478
5167800000,-99.7848391958138
5173500000,-100.036806436494
5179200000,-101.861728122154
5184900000,-99.0858539715897
5190600000,-100.67452774571
5196300000,-100.156388460729
5202000000,-91.4012402384941
5207700000,-98.4528531436598
5213400000,-98.1478374963303
5219100000,-96.5767259878576
5224800000,-98.9000030465502
5230500000,-94.5814669954713
5236200000,-94.5760020176759
5241900000,-94.6696260989581
5247600000,-93.9517874043161
5253300000,-95.451323101212
5259000000,-94.7749008711737
5264700000,-93.6929915226475
5270400000,-93.0319451867668
5276100000,-95.560323833816
5281800000,-94.9100507081514
5287500000,-94.3414844261708
5293200000,-95.9844653042819
5298900000,-100.340461731557
5304600000,-100.633849957906
5310300000,-74.3810330506745
5316000000,-92.9602070405429
5321700000,-92.7767076086874
5327400000,-95.2699647324723
5333100000,-95.8918822866399
5338800000,-96.9567503419963
5344500000,-99.1432062635231
5350200000,-93.1720691283065
5355900000,-94.6934246922195
5361600000,-96.827590887049
5367300000,-95.9889195010788
5373000000,-91.4421788047868
5378700000,-90.741189122447
5384400000,-91.5239152065556
5390100000,-91.9274591964539
5395800000,-91.2271507285138
5401500000,-88.6552025430311
5407200000,-90.8931243709576
5412900000,-93.6862654459186
5418600000,-93.738722222022
5424300000,-92.0758966161984
5430000000,-91.5627584885343
5435700000,-87.956880257266
5441400000,-95.2064103566734
5447100000,-95.7402466251871
5452800000,-97.2021185521667
5458500000,-96.1635492293332
5464200000,-98.6400778142329
5469900000,-79.177892430972
5475600000,-95.0829180158576
5481300000,-92.0914286701637
5487000000,-93.2533961378252
5492700000,-96.3592730795094
5498400000,-54.7921394674477
5504100000,-92.7630882157707
5509800000,-91.2893498129513
5515500000,-92.5284901798015
5521200000,-92.2150170185174
5526900000,-89.4525775783834
5532600000,-89.2369143752211
5538300000,-89.849944334365
5544000000,-91.8701625968845
5549700000,-91.2351637476173
5555400000,-92.1867556256563
5561100000,-94.7857852336969
5566800000,-92.9659750435139
5572500000,-93.8053362973405
5578200000,-89.678474686956
5583900000,-91.8273846379197
5589600000,-91.6989814798272
5595300000,-91.9192812904063
5601000000,-92.5340397118064
5606700000,-98.7478083577009
5612400000,-96.923797714136
5618100000,-98.2399909262318
5623800000,-79.8201957965037
5629500000,-100.227169427817
5635200000,-99.5309035645617
5640900000,-100.859997831199
5646600000,-101.581916667237
5652300000,-101.82920591768
5658000000,-101.452228617152
5663700000,-98.7176045424795
5669400000,-99.4370605339279
5675100000,-100.017772443019
5680800000,-100.718965070134
5686500000,-93.8726562882893
5692200000,-101.482212433692
5697900000,-101.734365932393
5703600000,-102.201272082722
5709300000,-97.304986609664
5715000000,-97.7625232746538
5720700000,-95.5701727026235
5726400000,-98.1728559753363
5732100000,-100.615282171514
5737800000,-98.8103326980669
5743500000,-99.5038771103603
5749200000,-91.0311310138858
5754900000,-100.015137823866
5760600000,-99.8598964513274
5766300000,-98.524689222421
5772000000,-96.8786740362525
5777700000,-96.3831236585321
5783400000,-81.1931295772101
5789100000,-98.1374785658103
5794800000,-99.8040135220076
5800500000,-99.1802486130986
5806200000,-104.013792277212
5811900000,-92.0208287299981
5817600000,-103.07913349509
5823300000,-102.548482971022
5829000000,-102.131540591148
5834700000,-103.118251210298
5840400000,-102.767151673983
5846100000,-102.602511860749
5851800000,-98.7062609608136
5857500000,-97.2220549077512
5863200000,-99.1790596925395
5868900000,-102.133449552274
5874600000,-100.850801895313
5880300000,-98.9853476887658
5886000000,-98.9097565154013
5891700000,-100.758228771067
5897400000,-101.1936494248
5903100000,-101.778106120354
5908800000,-101.708087935961
5914500000,-100.468900721187
5920200000,-96.517005317061
5925900000,-95.3739779445502
5931600000,-100.72921376112
5937300000,-87.7568663439844
5943000000,-101.798985045297
5948700000,-102.175070058666
5954400000,-99.7163280325731
5960100000,-99.4092273966462
5965800000,-99.243896571086
5971500000,-98.0516790273213
5977200000,-97.7779512383146
5982900000,-98.3389259760074
5988600000,-95.1527344077283
5994300000,-98.2009019273371
6000000000,-61.5789310574956
