Trace
Swept SA
A.16.17,N9010A
526 FS1 ,01
Segment,0
Number of Points,1001
Sweep Time,656.175767597013
Start Frequency,300000000
Stop Frequency,6000000000
Average Count,1
Average Type,LogPower(Video)
RBW,100
RBW Filter,Gaussian
RBW Filter BW,3dB
VBW,1000
Sweep Type,Fft
X Axis Scale,Lin
PreAmp State,Off
PreAmp Band,Low
Trigger Source,Free
Trigger Level,1.2
Trigger Slope,Positive
Trigger Delay,0
Phase Noise Optimization,Fast
Swept If Gain,High
FFT If Gain,Autorange
RF Coupling,AC
FFT Width,411900
Ext Ref,10000000
Input,RF
RF Calibrator,Off
Attenuation,0
Ref Level Offset,0
External Gain,0
Trace Type,Maxhold
Detector,Peak
Trace Math,Off
Trace Math Oper1,Trace5
Trace Math Oper2,Trace6
Trace Math Offset,0
Normalize,Off
Trace Name,Trace1
X Axis Units,Hz
Y Axis Units,dBm
DATA
300000000,-38.402995260305
305700000,-59.0638464230204
311400000,-52.8490685697402
317100000,-64.8811944989101
322800000,-41.0065682233286
328500000,-54.1903026207635
334200000,-68.1335764551445
339900000,-48.6469389712858
345600000,-58.0643712302161
351300000,-41.8508801303804
357000000,-62.0399412876901
362700000,-52.5410526700406
368400000,-51.1688832761195
374100000,-50.9897451319225
379800000,-60.509683351674
385500000,-50.8544922505467
391200000,-45.5838180797409
396900000,-62.3290729655717
402600000,-44.0637236387005
408300000,-52.8347679469454
414000000,-69.0177219481221
419700000,-64.8473552811741
425400000,-60.1499105362865
431100000,-42.8036933759186
436800000,-73.9235715812458
442500000,-55.5937938662444
448200000,-38.047624847988
453900000,-71.3200829914328
459600000,-56.3347851067666
465300000,-76.0340120232653
471000000,-40.768781883429
476700000,-61.0010376187148
482400000,-60.2411217987179
488100000,-45.2625865857458
493800000,-71.6405428915111
499500000,-41.6300370927348
505200000,-70.5370542756043
510900000,-55.003461564175
516600000,-78.2659195533455
522300000,-52.8287573682611
528000000,-55.6657340366208
533700000,-82.9387376928232
539400000,-65.2833711712743
545100000,-78.5783694943275
550800000,-58.1945345388633
556500000,-79.132217300344
562200000,-53.2058321329182
567900000,-65.5325121930665
573600000,-46.9104199595902
579300000,-45.2770410610381
585000000,-76.1258863096358
590700000,-39.9111670814231
596400000,-67.7420157816484
602100000,-52.4636283629337
607800000,-43.700048296255
613500000,-66.8961657280996
619200000,-47.1782095273554
624900000,-45.4241785839048
630600000,-35.2361920982781
636300000,-63.5782159856255
642000000,-41.4031213584346
647700000,-50.2218255474267
653400000,-65.3485100511098
659100000,-39.6508935544214
664800000,-54.858796917869
670500000,-39.8714043693352
676200000,-43.9757308370899
681900000,-40.7304324879678
687600000,-39.2723857006174
693300000,-53.5716277986131
699000000,-38.4493793060638
704700000,-52.6933439236021
710400000,-37.5805387571287
716100000,-60.1615455464716
721800000,-49.6957308019277
727500000,-42.1128798062545
733200000,-60.6576396245014
738900000,-35.6254841937303
744600000,-59.9123336045635
750300000,-33.3558894031045
756000000,-64.6729529447249
761700000,-38.3958857763298
767400000,-37.8841546237586
773100000,-50.9692953371589
778800000,-51.3092449161148
784500000,-60.1777799299377
790200000,-44.3711998802347
795900000,-61.7559039553947
801600000,-46.0837543831383
807300000,-39.1467676770518
813000000,-62.9813101002293
818700000,-35.4207833675628
824400000,-61.3646598750295
830100000,-41.5762228084412
835800000,-63.0784750168297
841500000,-45.8331649843063
847200000,-48.6349946643473
852900000,-58.1906115540216
858600000,-46.4490107849085
864300000,-65.522187398908
870000000,-46.6455602429202
875700000,-36.6549084187422
881400000,-45.9959625725663
887100000,-64.5778086748661
892800000,-47.0380059896844
898500000,-48.3496931496379
904200000,-60.9632610922342
909900000,-49.434792428549
915600000,-59.9561441929124
921300000,-42.4213081351217
927000000,-63.3258315882094
932700000,-52.2412291148529
938400000,-53.8712759612979
944100000,-62.5793953139306
949800000,-53.8190385272538
955500000,-67.3511192352923
961200000,-55.3029143272929
966900000,-65.6965970232912
972600000,-54.5460327657359
978300000,-46.5995315091458
984000000,-64.7116540558033
989700000,-47.765311076578
995400000,-65.2302369565329
1001100000,-44.6314921757897
1006800000,-68.3835792277375
1012500000,-60.3240986947671
1018200000,-48.7490274401912
1023900000,-60.1163692322299
1029600000,-30.4917519964083
1035300000,-62.0723265376381
1041000000,-61.3220986125567
1046700000,-64.0151673844777
1052400000,-56.0578657103984
1058100000,-51.3369813606756
1063800000,-68.0973511380165
1069500000,-56.5098027957593
1075200000,-67.0329500914939
1080900000,-52.0733049913552
1086600000,-70.9233362874934
1092300000,-66.4797726832674
1098000000,-55.0388184219945
1103700000,-65.7618586582141
1109400000,-60.8841090134746
1115100000,-69.2044088511651
1120800000,-68.0836469245459
1126500000,-36.0990453206612
1132200000,-61.8908625731285
1137900000,-58.5913243388319
1143600000,-67.1214416613647
1149300000,-67.1574731407246
1155000000,-69.5925980746421
1160700000,-56.6753595926736
1166400000,-70.5738020887503
1172100000,-62.0100995032029
1177800000,-64.2950113806719
1183500000,-69.5136611110455
1189200000,-66.9001495419255
1194900000,-68.6179302891397
1200600000,-56.9138093844795
1206300000,-68.1915136710576
1212000000,-64.8928046390749
1217700000,-62.2966594528816
1223400000,-68.748248454649
1229100000,-66.3863449626726
1234800000,-72.8167329538374
1240500000,-63.9591881638047
1246200000,-65.5840129152321
1251900000,-63.2624270294567
1257600000,-57.1956987693408
1263300000,-70.7431126443204
1269000000,-66.9753555178484
1274700000,-63.1113175374405
1280400000,-60.4508898522162
1286100000,-68.8194282421414
1291800000,-61.3855711392017
1297500000,-66.7128365816966
1303200000,-69.7913209645129
1308900000,-69.8868160317927
1314600000,-69.5287021492153
1320300000,-64.8871614457725
1326000000,-67.6720305406788
1331700000,-70.7427539816632
1337400000,-65.7446349314862
1343100000,-66.2410117637648
1348800000,-46.144313428591
1354500000,-66.0361159896245
1360200000,-61.0112454882119
1365900000,-67.3564620125576
1371600000,-65.5404893380731
1377300000,-59.0387307551608
1383000000,-65.6659197036776
1388700000,-65.2404686577367
1394400000,-63.625026543472
1400100000,-63.9685746364658
1405800000,-58.5178999658602
1411500000,-65.6279174694004
1417200000,-63.853200067577
1422900000,-67.2710527519729
1428600000,-65.1684143884758
1434300000,-69.2482373013625
1440000000,-57.3966019749145
1445700000,-67.6966693320565
1451400000,-62.2156142515862
1457100000,-71.30807670076
1462800000,-61.0446262593199
1468500000,-67.2027956757235
1474200000,-69.1769320348916
1479900000,-67.4400616294155
1485600000,-69.9454695445167
1491300000,-62.309562340065
1497000000,-69.099517575739
1502700000,-54.0717243643954
1508400000,-65.9389925095982
1514100000,-70.3209582245705
1519800000,-69.1864835518611
1525500000,-69.7580342742008
1531200000,-69.1098958347402
1536900000,-70.7788854469445
1542600000,-68.3934709339794
1548300000,-64.7512999520662
1554000000,-70.597679079999
1559700000,-64.3040599933841
1565400000,-65.7113531522705
1571100000,-63.9005730097658
1576800000,-73.0245615917117
1582500000,-68.7439489130084
1588200000,-65.6136791241716
1593900000,-65.3135057925219
1599600000,-68.0986989479947
1605300000,-66.3075427643392
1611000000,-65.5389037737644
1616700000,-64.464454342567
1622400000,-66.9584066453937
1628100000,-62.8515918397441
1633800000,-63.812784493248
1639500000,-66.3183368269411
1645200000,-67.7759391310129
1650900000,-66.0039017892086
1656600000,-67.347610354876
1662300000,-69.0705783035515
1668000000,-68.9721084611857
1673700000,-73.7189073129969
1679400000,-70.7793660294565
1685100000,-65.7789100827331
1690800000,-70.9665487842722
1696500000,-69.2844711475531
1702200000,-71.1558955983044
1707900000,-72.1356528311348
1713600000,-72.9648557601831
1719300000,-63.1780390496383
1725000000,-74.3834549852638
1730700000,-72.1735891704543
1736400000,-72.58267014659
1742100000,-76.75648696679
1747800000,-66.9444941049846
1753500000,-73.453338230284
1759200000,-72.0079029806906
1764900000,-69.9369507458023
1770600000,-73.2695771827936
1776300000,-75.9721690117559
1782000000,-73.3430291069659
1787700000,-74.5288256607911
1793400000,-76.6900665480421
1799100000,-74.3762025869782
1804800000,-72.8748940884993
1810500000,-68.2180208764255
1816200000,-71.2007264322799
1821900000,-72.1430475219034
1827600000,-76.8657646166177
1833300000,-80.7144195372603
1839000000,-74.6567072053318
1844700000,-74.0618744516374
1850400000,-67.9196562716399
1856100000,-72.9730175713745
1861800000,-67.1727486604205
1867500000,-75.255631984511
1873200000,-62.1381019143731
1878900000,-66.532952095331
1884600000,-78.0696690839251
1890300000,-70.8735296258763
1896000000,-77.5146216750928
1901700000,-71.4485066200684
1907400000,-79.2827219235042
1913100000,-79.5624707260137
1918800000,-65.6135039158222
1924500000,-79.9199813297813
1930200000,-70.7948538425224
1935900000,-71.1551415174988
1941600000,-77.5066690246872
1947300000,-75.8184570602753
1953000000,-77.5158096054913
1958700000,-75.9093153829024
1964400000,-80.0210168710165
1970100000,-78.9716010938505
1975800000,-80.6841826094037
1981500000,-75.1093541335379
1987200000,-78.1147040453858
1992900000,-77.3690946229743
1998600000,-53.5266230411926
2004300000,-83.9811706458664
2010000000,-80.0608066566229
2015700000,-79.6929608901351
2021400000,-82.1614424378687
2027100000,-68.5247782376706
2032800000,-69.8711159350914
2038500000,-79.2196193748991
2044200000,-79.1023190220218
2049900000,-75.4435546873788
2055600000,-83.158854658212
2061300000,-58.6806924903472
2067000000,-83.3656794598845
2072700000,-79.8016340405425
2078400000,-78.4742140867323
2084100000,-80.7199247654879
2089800000,-74.8876492875962
2095500000,-82.1916747471689
2101200000,-74.5519594390338
2106900000,-75.6205997482003
2112600000,-74.1571205649697
2118300000,-77.137604642407
2124000000,-75.7258804995914
2129700000,-78.0524656338978
2135400000,-83.957924926838
2141100000,-78.9969394869837
2146800000,-76.4372228582014
2152500000,-78.5923107893414
2158200000,-82.1031109291088
2163900000,-81.8346058597335
2169600000,-80.0905638691458
2175300000,-84.9038749607902
2181000000,-81.9074237765131
2186700000,-68.5551264108598
2192400000,-80.8101726970165
2198100000,-76.6507876806049
2203800000,-75.0150352283152
2209500000,-80.5963538027714
2215200000,-78.8647066185705
2220900000,-73.2937195871758
2226600000,-80.1821205419355
2232300000,-82.9598238339438
2238000000,-76.7060252499729
2243700000,-75.5742213423832
2249400000,-69.1786045223918
2255100000,-77.8879306453479
2260800000,-78.3981932667807
2266500000,-74.3122953791073
2272200000,-76.444589097708
2277900000,-79.8501484926249
2283600000,-75.8362043221401
2289300000,-75.9940537944644
2295000000,-77.5137670870762
2300700000,-77.9911653070784
2306400000,-74.0245732843763
2312100000,-77.1037937307205
2317800000,-75.4240271835612
2323500000,-75.9267224005221
2329200000,-76.1320970549181
2334900000,-77.2127247433957
2340600000,-77.3475244886352
2346300000,-65.2542156844645
2352000000,-77.7713607515631
2357700000,-77.0760950432977
2363400000,-73.9768012554195
2369100000,-73.3681505048514
2374800000,-73.3949672050085
2380500000,-72.224839724927
2386200000,-72.3739953054115
2391900000,-71.5606450018047
2397600000,-61.9453649413616
2403300000,-72.6356350476766
2409000000,-70.5496409488757
2414700000,-72.9252697230176
2420400000,-71.3939290210178
2426100000,-72.3960940531019
2431800000,-74.0473759361103
2437500000,-72.4935490838615
2443200000,-74.4972574080496
2448900000,-73.4240840868117
2454600000,-76.4273601443511
2460300000,-71.7484761477038
2466000000,-70.5676766405563
2471700000,-74.1428424922511
2477400000,-76.8694077931077
2483100000,-75.545604345741
2488800000,-76.8031695888114
2494500000,-78.9226817266782
2500200000,-44.2347386626338
2505900000,-74.2443353821709
2511600000,-74.1363490932829
2517300000,-73.1754196606747
2523000000,-75.1990616834627
2528700000,-76.4878157498906
2534400000,-73.2410827865125
2540100000,-71.4625754105939
2545800000,-72.3229946033129
2551500000,-77.0560938959144
2557200000,-76.2686662098529
2562900000,-76.8603559667882
2568600000,-75.7888947253925
2574300000,-75.2834145552819
2580000000,-72.3594205489829
2585700000,-77.2705553621581
2591400000,-77.8934580700977
2597100000,-76.0713573718022
2602800000,-76.5352141906824
2608500000,-73.3078048160111
2614200000,-74.666715525407
2619900000,-78.9898642343819
2625600000,-73.7487690508244
2631300000,-78.1987490381769
2637000000,-80.9081633524691
2642700000,-78.6689145510247
2648400000,-76.2486472028225
2654100000,-71.621281596538
2659800000,-79.9044389558896
2665500000,-78.0731180871612
2671200000,-80.0270122350359
2676900000,-80.7384853550188
2682600000,-79.3699158431698
2688300000,-77.5794244208458
2694000000,-83.0526495505112
2699700000,-79.102847455575
2705400000,-80.9709318049302
2711100000,-78.734279120272
2716800000,-77.2506595525833
2722500000,-77.4930692611149
2728200000,-80.7476936578551
2733900000,-83.1392138563465
2739600000,-81.0064959192425
2745300000,-83.3505667572669
2751000000,-71.0897200223142
2756700000,-79.2003577985435
2762400000,-78.923486131865
2768100000,-82.7774902825246
2773800000,-83.6179511648316
2779500000,-82.4259915032859
2785200000,-79.7546328858832
2790900000,-81.203476038817
2796600000,-83.5995295836822
2802300000,-71.9211340360846
2808000000,-84.5001937944745
2813700000,-66.4180594952386
2819400000,-85.1127133902276
2825100000,-84.52146574187
2830800000,-84.6156984095132
2836500000,-85.7943454323217
2842200000,-83.3207421241283
2847900000,-83.1825892117607
2853600000,-85.1745054290111
2859300000,-83.7275714528031
2865000000,-82.1241352061047
2870700000,-87.3199437832837
2876400000,-71.6974737850548
2882100000,-79.8607043563967
2887800000,-82.2985754377815
2893500000,-80.4560523708467
2899200000,-82.7702932617161
2904900000,-86.2843592298725
2910600000,-83.9920845115993
2916300000,-85.0083300196959
2922000000,-85.2423702849428
2927700000,-79.5879810056995
2933400000,-80.1732389141823
2939100000,-64.529473926394
2944800000,-77.8129026778087
2950500000,-81.3036009528993
2956200000,-81.4962895011912
2961900000,-85.8779135362355
2967600000,-71.7841941495692
2973300000,-86.641943395661
2979000000,-81.8481870369311
2984700000,-81.3323815017079
2990400000,-79.7789844500596
2996100000,-80.3282765102739
3001800000,-61.9039291425899
3007500000,-83.9148870575546
3013200000,-83.7646074718826
3018900000,-80.0602500039524
3024600000,-81.8851269716112
3030300000,-80.725811822281
3036000000,-79.7207374523743
3041700000,-82.209456307642
3047400000,-79.983293724395
3053100000,-79.7509838907249
3058800000,-80.0249325390355
3064500000,-71.1797338593927
3070200000,-77.6801022620973
3075900000,-78.1076493879958
3081600000,-77.6981458655851
3087300000,-38.0847186106703
3093000000,-76.6940785717104
3098700000,-75.6461818710602
3104400000,-78.3965110892582
3110100000,-78.8443798200774
3115800000,-80.241910769067
3121500000,-80.3035269235733
3127200000,-70.7918531961428
3132900000,-78.1871543393898
3138600000,-74.4660280004716
3144300000,-71.7686717882038
3150000000,-79.9741577477118
3155700000,-82.940283672021
3161400000,-80.5047301049343
3167100000,-76.7727446064852
3172800000,-76.6966825869267
3178500000,-80.5246673990695
3184200000,-79.9428709263314
3189900000,-75.4379979245171
3195600000,-75.1463518666428
3201300000,-76.6452622053868
3207000000,-80.9409689712419
3212700000,-79.1953101337791
3218400000,-79.4364900661036
3224100000,-79.6265466265219
3229800000,-77.994512500378
3235500000,-81.1540079867413
3241200000,-79.8528217340687
3246900000,-81.4358911318817
3252600000,-80.4405153577615
3258300000,-82.3062811290772
3264000000,-81.4044530733092
3269700000,-81.5708410617944
3275400000,-85.1466774869587
3281100000,-78.8316309500982
3286800000,-82.0168073291808
3292500000,-80.6404939834343
3298200000,-81.461127285208
3303900000,-85.7875863456074
3309600000,-80.9984905934063
3315300000,-80.6157059225692
3321000000,-85.0879473236084
3326700000,-84.007242543024
3332400000,-83.8997265739194
3338100000,-84.1105993475534
3343800000,-83.9946241768079
3349500000,-83.1283169861889
3355200000,-85.7806753266805
3360900000,-82.8989487482312
3366600000,-84.4908508029896
3372300000,-80.1656742435398
3378000000,-85.496534177894
3383700000,-84.8014857643492
3389400000,-80.9455347375684
3395100000,-81.9695678401989
3400800000,-81.6858514944303
3406500000,-81.040224184552
3412200000,-83.0905320103612
3417900000,-85.1018228399429
3423600000,-88.0557468585074
3429300000,-86.778189261804
3435000000,-80.0482900883978
3440700000,-86.2565965988806
3446400000,-84.3666124282229
3452100000,-82.6056853832267
3457800000,-89.5343016477905
3463500000,-90.5900955437625
3469200000,-88.808542355222
3474900000,-87.6624719809837
3480600000,-87.748217985603
3486300000,-87.9887939090781
3492000000,-88.5415119736172
3497700000,-45.889293717865
3503400000,-85.3090497057728
3509100000,-87.5660627049767
3514800000,-88.7694822613704
3520500000,-87.601179429447
3526200000,-86.7041260362657
3531900000,-88.9187823164473
3537600000,-87.7972381704193
3543300000,-88.8023341556959
3549000000,-86.1912043670932
3554700000,-86.9604066408785
3560400000,-84.2934189879438
3566100000,-86.8446253744824
3571800000,-89.5908639567834
3577500000,-90.7332200093853
3583200000,-84.761988737966
3588900000,-86.8977107179398
3594600000,-72.8562982685251
3600300000,-70.0554319434655
3606000000,-82.4399042950294
3611700000,-85.7942819820975
3617400000,-84.1000165811943
3623100000,-82.8387497912957
3628800000,-89.4575799877
3634500000,-89.4895548871637
3640200000,-86.4031862868658
3645900000,-86.433975172617
3651600000,-87.5232722643787
3657300000,-92.9975843304198
3663000000,-85.4353081451635
3668700000,-86.2938648090339
3674400000,-88.476997662834
3680100000,-88.4229504363819
3685800000,-88.4717155609783
3691500000,-86.9143922723076
3697200000,-88.0899829748312
3702900000,-89.6372373877861
3708600000,-87.8267522670435
3714300000,-86.7302516787828
3720000000,-87.3444209626456
3725700000,-89.4423950824251
3731400000,-87.609242209117
3737100000,-84.8535348877587
3742800000,-85.5689589615393
3748500000,-70.2800765256755
3754200000,-85.6227929947895
3759900000,-87.1311339236384
3765600000,-85.0645030794995
3771300000,-88.3922230086217
3777000000,-85.3058692001438
3782700000,-87.173028545053
3788400000,-83.256561067713
3794100000,-86.0864699337333
3799800000,-87.0633041831209
3805500000,-86.0029864962548
3811200000,-88.5132442108322
3816900000,-85.2570272412096
3822600000,-83.1437223844379
3828300000,-87.9431732932777
3834000000,-87.5366392085931
3839700000,-87.057148021609
3845400000,-85.7289753716587
3851100000,-87.6627289253367
3856800000,-83.3685431994754
3862500000,-85.3901319157015
3868200000,-88.2489647121711
3873900000,-85.4089754496243
3879600000,-87.1078922501064
3885300000,-82.3918055749881
3891000000,-82.0568441595262
3896700000,-83.287195059393
3902400000,-86.8552187682787
3908100000,-73.9278033244799
3913800000,-87.0227912343903
3919500000,-83.5332855793684
3925200000,-81.8145379251221
3930900000,-83.4337607436525
3936600000,-86.5760536349312
3942300000,-87.775089611992
3948000000,-85.8543518140758
3953700000,-84.1677338841909
3959400000,-86.2686470099879
3965100000,-85.6348489104334
3970800000,-82.8255243665345
3976500000,-84.2470813302021
3982200000,-79.3526988986554
3987900000,-79.7579288253452
3993600000,-83.2365469656306
3999300000,-63.7754996698717
4005000000,-86.7717081535606
4010700000,-84.562844084148
4016400000,-84.0861415977493
4022100000,-86.2229012612331
4027800000,-85.0777612985896
4033500000,-85.5885939287028
4039200000,-85.1979391126234
4044900000,-84.4767614362637
4050600000,-85.8584098850463
4056300000,-85.6588190803352
4062000000,-72.6804806341499
4067700000,-86.2249967119011
4073400000,-86.7725249490861
4079100000,-84.6998289997676
4084800000,-82.1995835350716
4090500000,-82.4711113034457
4096200000,-84.7281627139568
4101900000,-81.2572289445485
4107600000,-84.8070351526943
4113300000,-88.7454553299495
4119000000,-44.9910669489309
4124700000,-83.623450832158
4130400000,-90.9634730459292
4136100000,-90.4668835573627
4141800000,-85.7713797048029
4147500000,-86.9154197726437
4153200000,-90.2972562283296
4158900000,-86.5485785048693
4164600000,-84.3676020727105
4170300000,-85.2455872587033
4176000000,-88.4632178182525
4181700000,-91.1570728555586
4187400000,-78.7893390513845
4193100000,-87.0615680542417
4198800000,-89.0974232878578
4204500000,-89.1336415457843
4210200000,-90.9255123160952
4215900000,-67.8895011210685
4221600000,-92.5521766891501
4227300000,-93.548347556064
4233000000,-94.3943517707126
4238700000,-92.0050759479521
4244400000,-92.7580414489343
4250100000,-73.9669237060117
4255800000,-90.2842426124897
4261500000,-90.1679927524098
4267200000,-92.1409062094099
4272900000,-92.1564628769992
4278600000,-93.2461596828049
4284300000,-92.9274310113771
4290000000,-94.5931238080752
4295700000,-95.9349330435679
4301400000,-93.6065870557293
4307100000,-90.1123127843378
4312800000,-71.7055066242951
4318500000,-90.7624725651756
4324200000,-92.4861382550717
4329900000,-95.6121937416576
4335600000,-97.8633121662628
4341300000,-97.4303288438258
4347000000,-90.9239433135168
4352700000,-93.8732982913719
4358400000,-94.465585703419
4364100000,-95.8561871956841
4369800000,-91.7706577967091
4375500000,-75.8759852573105
4381200000,-91.4155558272124
4386900000,-96.6280663193308
4392600000,-92.9574141123304
4398300000,-87.7013914759847
4404000000,-91.2901660793362
4409700000,-93.9772657811445
4415400000,-91.8345033189271
4421100000,-91.681430051204
4426800000,-92.7858826115172
4432500000,-92.9208631301523
4438200000,-73.3081428375093
4443900000,-96.2973842299579
4449600000,-93.6071293833815
4455300000,-93.4215494474118
4461000000,-92.5051357781562
4466700000,-87.7969613023231
4472400000,-86.5652602521977
4478100000,-87.8414667667782
4483800000,-90.0260886353741
4489500000,-88.4688535999882
4495200000,-91.5653788134408
4500900000,-45.2934517397206
4506600000,-94.0485153161232
4512300000,-93.9150039346321
4518000000,-91.5795582640318
4523700000,-88.8302974409415
4529400000,-74.6656635877345
4535100000,-92.4311008861976
4540800000,-92.9625415873394
4546500000,-92.7819672740276
4552200000,-92.7395033453975
4557900000,-94.1970246641587
4563600000,-90.5728821478502
4569300000,-94.3410809472417
4575000000,-94.5868493797832
4580700000,-92.8076083606649
4586400000,-90.8029114492262
4592100000,-90.4580820139718
4597800000,-93.4499266019142
4603500000,-89.9137859690217
4609200000,-91.3439157802288
4614900000,-92.4847576909093
4620600000,-89.5849986055009
4626300000,-87.6242466534672
4632000000,-89.4843561688764
4637700000,-88.358315918865
4643400000,-89.5310494186785
4649100000,-89.060999659709
4654800000,-87.6975481886304
4660500000,-87.005232308292
4666200000,-85.8597312765458
4671900000,-87.3029068183426
4677600000,-87.7494394657288
4683300000,-86.7830899812926
4689000000,-82.471224931853
4694700000,-87.9936584846355
4700400000,-87.6938465054142
4706100000,-88.0967733064443
4711800000,-89.6469311584936
4717500000,-90.3270845921222
4723200000,-89.10673060227
4728900000,-89.346396098386
4734600000,-90.3356710620742
4740300000,-88.1556411437697
4746000000,-88.2187618919028
4751700000,-89.9038386033357
4757400000,-90.5348548475331
4763100000,-94.7538977731873
4768800000,-93.0423770206586
4774500000,-91.1245976097175
4780200000,-89.340706615334
4785900000,-87.7040320577987
4791600000,-89.0006360393997
4797300000,-80.7020671437522
4803000000,-90.6816406465444
4808700000,-89.6047670934625
4814400000,-92.3660282096582
4820100000,-92.0567102207441
4825800000,-92.5490695416819
4831500000,-91.8203150501309
4837200000,-92.1067080672334
4842900000,-76.1269449717842
4848600000,-90.2031282821114
4854300000,-92.1845511167124
4860000000,-92.0781419181606
4865700000,-93.6909171681228
4871400000,-96.0379669072262
4877100000,-89.5372013656919
4882800000,-93.2807393879758
4888500000,-93.8914224579494
4894200000,-94.8842888689391
4899900000,-93.8710416909004
4905600000,-95.0228474638631
4911300000,-94.3388032836143
4917000000,-95.301230163586
4922700000,-99.4658164923871
4928400000,-100.196169658299
4934100000,-96.6581104416421
4939800000,-94.999406018095
4945500000,-99.9057225484409
4951200000,-98.9659583620475
4956900000,-96.076875198063
4962600000,-99.0321387727684
4968300000,-95.3976966480037
4974000000,-93.4604009227692
4979700000,-94.2649629732482
4985400000,-93.9415810700256
4991100000,-94.752607991435
4996800000,-99.7425598978464
5002500000,-69.3986078154273
5008200000,-97.6234875839808
5013900000,-94.3658669017631
5019600000,-95.2715408527672
5025300000,-95.9692626907323
5031000000,-93.7781776956465
5036700000,-91.574971052597
5042400000,-93.9546493794609
5048100000,-96.2636007517862
5053800000,-97.7953217926362
5059500000,-96.3682576297824
5065200000,-97.011532139097
5070900000,-97.4471624207048
5076600000,-95.5046382669524
5082300000,-96.399624092854
5088000000,-97.1735536497078
5093700000,-96.3758343120726
5099400000,-95.8951361612747
5105100000,-96.7617091863947
5110800000,-97.8536824712916
5116500000,-97.3806353534986
5122200000,-96.031042068978
5127900000,-98.9317796791804
5133600000,-99.5950454786491
5139300000,-99.4944188190733
5145000000,-100.326988110485
5150700000,-41.8730671234691
5156400000,-63.1665053343722
5162100000,-97.89178327551
5167800000,-99.3636231912712
5173500000,-100.333639600522
5179200000,-101.289727620628
5184900000,-99.3211819889681
5190600000,-99.468984987306
5196300000,-100.319016873609
5202000000,-99.052715959771
5207700000,-98.7605111667793
5213400000,-97.8394994710637
5219100000,-97.0766159092023
5224800000,-99.0790184710069
5230500000,-94.7942187766146
5236200000,-95.7800331108944
5241900000,-94.8375420360716
5247600000,-93.369161232119
5253300000,-95.6198438332908
5259000000,-94.6262120737197
5264700000,-94.6008051616671
5270400000,-93.4912528198881
5276100000,-96.6844147605344
5281800000,-93.8855715015865
5287500000,-94.3320398683315
5293200000,-96.1886021655266
5298900000,-100.039781539635
5304600000,-101.592944302783
5310300000,-74.8837910446152
5316000000,-92.3013184368718
5321700000,-92.8808252944786
5327400000,-95.3893580926023
5333100000,-95.7964959528306
5338800000,-95.5081201063519
5344500000,-99.4461660961294
5350200000,-93.7966484607544
5355900000,-93.690041398722
5361600000,-96.5875915765033
5367300000,-95.9497391526651
5373000000,-94.5914730591671
5378700000,-91.9567494683509
5384400000,-91.8979881167202
5390100000,-93.4557129008524
5395800000,-91.8046922276499
5401500000,-90.4700210777326
5407200000,-90.1161235054587
5412900000,-91.7322496239888
5418600000,-95.1538282785291
5424300000,-91.0175032790207
5430000000,-90.3346051634516
5435700000,-88.9724630848855
5441400000,-95.1263810416977
5447100000,-95.8683759364772
5452800000,-98.266832004775
5458500000,-96.5412093076857
5464200000,-98.579813444255
5469900000,-77.0015558436727
5475600000,-94.4533750491319
5481300000,-91.2564636526867
5487000000,-92.6533937748257
5492700000,-94.3434355642521
5498400000,-58.8593507565172
5504100000,-93.716782722642
5509800000,-91.2724139166128
5515500000,-92.1135270367169
5521200000,-92.4079920003763
5526900000,-89.1057191012918
5532600000,-87.9992628106543
5538300000,-89.8695971726892
5544000000,-92.6623556607075
5549700000,-90.9608696654845
5555400000,-92.7055593660357
5561100000,-92.4462702556121
5566800000,-93.1676262450546
5572500000,-93.2243297125159
5578200000,-89.6210769462395
5583900000,-90.8099863265815
5589600000,-92.4906989406972
5595300000,-91.4829739763338
5601000000,-92.4173354547974
5606700000,-96.9541392046807
5612400000,-96.4527618794401
5618100000,-96.7779214850805
5623800000,-80.190423845659
5629500000,-99.8568940377215
5635200000,-99.4259491024513
5640900000,-101.013033825084
5646600000,-100.55351141964
5652300000,-100.691243317168
5658000000,-100.984473089531
5663700000,-99.115847497911
5669400000,-98.7688934154516
5675100000,-99.1659088436471
5680800000,-101.000129905001
5686500000,-92.2592643108921
5692200000,-102.332669640883
5697900000,-102.565435239016
5703600000,-101.681904939414
5709300000,-96.874913382064
5715000000,-97.0979090832652
5720700000,-94.9683727505237
5726400000,-97.331507603191
5732100000,-99.4022658600991
5737800000,-99.2116878533459
5743500000,-98.8771205754663
5749200000,-90.4963550094574
5754900000,-99.6428399457167
5760600000,-99.9411466204134
5766300000,-98.6448204903629
5772000000,-97.8590743145099
5777700000,-96.1731934414373
5783400000,-81.3644749820499
5789100000,-97.6948450606374
5794800000,-99.9731395606154
5800500000,-99.8515963031527
5806200000,-103.0722109207
5811900000,-97.9158265077381
5817600000,-104.286514498036
5823300000,-103.079422060822
5829000000,-103.16473972996
5834700000,-102.960064600881
5840400000,-103.183706497404
5846100000,-101.982717312915
5851800000,-99.0287151434818
5857500000,-97.4009219890116
5863200000,-99.4169330887125
5868900000,-102.31819915192
5874600000,-101.460301519592
5880300000,-98.7773922717165
5886000000,-98.2001829913804
5891700000,-100.299052864375
5897400000,-101.035596649297
5903100000,-101.398408697657
5908800000,-102.14293878537
5914500000,-101.559647367831
5920200000,-95.8212127477028
5925900000,-95.7474725594241
5931600000,-100.131884553081
5937300000,-86.8347533737115
5943000000,-101.788466019891
5948700000,-100.949844194597
5954400000,-98.5678675824531
5960100000,-100.191648227846
5965800000,-98.985765795451
5971500000,-98.667531799089
5977200000,-98.6231270156777
5982900000,-98.9067630353812
5988600000,-97.159320343972
5994300000,-98.3851624693904
6000000000,-61.6120248843115
